raman   n
-2184.52	26.62
-2181.51	26.62
-2178.50	26.62
-2175.49	36.86
-2172.49	2.05
-2169.48	6.14
-2166.48	45.06
-2163.48	102.40
-2160.47	69.63
-2157.47	28.67
-2154.47	-10.24
-2151.48	-83.97
-2148.48	141.31
-2145.49	-30.72
-2142.49	-6.14
-2139.50	106.49
-2136.51	12.29
-2133.52	-43.01
-2130.53	-10.24
-2127.54	169.98
-2124.55	155.65
-2121.57	110.59
-2118.58	104.45
-2115.60	155.65
-2112.62	120.83
-2109.64	225.28
-2106.66	151.55
-2103.68	210.94
-2100.70	231.42
-2097.73	92.16
-2094.75	165.89
-2091.78	149.50
-2088.81	241.66
-2085.83	202.75
-2082.86	247.80
-2079.90	272.38
-2076.93	208.89
-2073.96	143.36
-2071.00	176.13
-2068.03	253.95
-2065.07	219.13
-2062.11	208.89
-2059.15	167.93
-2056.19	231.42
-2053.23	112.64
-2050.27	145.41
-2047.32	247.80
-2044.36	262.14
-2041.41	198.65
-2038.46	34.82
-2035.51	176.13
-2032.56	215.04
-2029.61	212.99
-2026.66	110.59
-2023.72	92.16
-2020.77	149.50
-2017.83	190.46
-2014.88	268.28
-2011.94	126.97
-2009.00	161.79
-2006.06	159.74
-2003.13	247.80
-2000.19	188.41
-1997.25	192.51
-1994.32	151.55
-1991.39	223.23
-1988.45	198.65
-1985.52	141.31
-1982.59	155.65
-1979.67	249.85
-1976.74	102.40
-1973.81	194.56
-1970.89	139.26
-1967.96	194.56
-1965.04	288.76
-1962.12	221.18
-1959.20	184.32
-1956.28	124.93
-1953.36	194.56
-1950.45	206.84
-1947.53	196.61
-1944.62	161.79
-1941.70	174.08
-1938.79	264.19
-1935.88	47.10
-1932.97	108.54
-1930.06	149.50
-1927.15	227.32
-1924.25	106.49
-1921.34	100.35
-1918.44	233.47
-1915.54	206.84
-1912.63	67.58
-1909.73	153.60
-1906.83	192.51
-1903.94	104.45
-1901.04	225.28
-1898.14	147.45
-1895.25	202.75
-1892.36	210.94
-1889.46	217.08
-1886.57	249.85
-1883.68	114.69
-1880.79	200.70
-1877.91	163.84
-1875.02	161.79
-1872.13	200.70
-1869.25	253.95
-1866.37	147.45
-1863.48	169.98
-1860.60	198.65
-1857.72	149.50
-1854.84	157.69
-1851.97	288.76
-1849.09	139.26
-1846.22	196.61
-1843.34	106.49
-1840.47	112.64
-1837.60	264.19
-1834.73	260.09
-1831.86	149.50
-1828.99	126.97
-1826.12	155.65
-1823.26	180.22
-1820.39	219.13
-1817.53	235.52
-1814.67	90.11
-1811.80	231.42
-1808.94	186.37
-1806.08	149.50
-1803.23	196.61
-1800.37	155.65
-1797.51	235.52
-1794.66	155.65
-1791.81	155.65
-1788.95	176.13
-1786.10	149.50
-1783.25	163.84
-1780.40	147.45
-1777.56	333.82
-1774.71	124.93
-1771.86	274.43
-1769.02	112.64
-1766.18	20.48
-1763.33	135.17
-1760.49	90.11
-1757.65	227.32
-1754.81	153.60
-1751.98	243.71
-1749.14	120.83
-1746.30	126.97
-1743.47	176.13
-1740.64	258.04
-1737.81	172.03
-1734.97	198.65
-1732.14	352.25
-1729.32	169.98
-1726.49	124.93
-1723.66	245.76
-1720.84	188.41
-1718.01	270.33
-1715.19	63.49
-1712.37	210.94
-1709.55	264.19
-1706.73	206.84
-1703.91	112.64
-1701.09	159.74
-1698.27	69.63
-1695.46	204.80
-1692.65	192.51
-1689.83	215.04
-1687.02	131.07
-1684.21	163.84
-1681.40	196.61
-1678.59	139.26
-1675.78	161.79
-1672.98	122.88
-1670.17	194.56
-1667.37	258.04
-1664.56	249.85
-1661.76	161.79
-1658.96	73.73
-1656.16	190.46
-1653.36	126.97
-1650.57	139.26
-1647.77	133.12
-1644.97	135.17
-1642.18	184.32
-1639.39	65.54
-1636.60	135.17
-1633.80	276.48
-1631.01	120.83
-1628.23	325.63
-1625.44	104.45
-1622.65	141.31
-1619.87	194.56
-1617.08	71.68
-1614.30	188.41
-1611.52	223.23
-1608.74	141.31
-1605.96	155.65
-1603.18	135.17
-1600.40	225.28
-1597.62	102.40
-1594.85	104.45
-1592.07	245.76
-1589.30	153.60
-1586.53	157.69
-1583.76	221.18
-1580.99	186.37
-1578.22	133.12
-1575.45	147.45
-1572.68	188.41
-1569.92	157.69
-1567.15	208.89
-1564.39	172.03
-1561.63	126.97
-1558.86	186.37
-1556.10	280.57
-1553.34	139.26
-1550.59	53.25
-1547.83	131.07
-1545.07	159.74
-1542.32	131.07
-1539.56	182.27
-1536.81	212.99
-1534.06	141.31
-1531.31	161.79
-1528.56	112.64
-1525.81	219.13
-1523.06	215.04
-1520.32	215.04
-1517.57	264.19
-1514.83	296.96
-1512.09	106.49
-1509.34	116.73
-1506.60	192.51
-1503.86	163.84
-1501.12	157.69
-1498.39	135.17
-1495.65	147.45
-1492.91	69.63
-1490.18	92.16
-1487.45	16.38
-1484.71	69.63
-1481.98	145.41
-1479.25	96.25
-1476.52	151.55
-1473.80	180.22
-1471.07	174.08
-1468.34	114.69
-1465.62	126.97
-1462.89	-36.86
-1460.17	206.84
-1457.45	96.25
-1454.73	221.18
-1452.01	249.85
-1449.29	249.85
-1446.57	208.89
-1443.86	161.79
-1441.14	79.87
-1438.43	135.17
-1435.71	79.87
-1433.00	131.07
-1430.29	155.65
-1427.58	337.91
-1424.87	178.17
-1422.16	241.66
-1419.46	282.62
-1416.75	206.84
-1414.05	223.23
-1411.34	96.25
-1408.64	104.45
-1405.94	210.94
-1403.24	112.64
-1400.54	139.26
-1397.84	542.71
-1395.14	309.24
-1392.45	329.72
-1389.75	145.41
-1387.06	217.08
-1384.36	247.80
-1381.67	112.64
-1378.98	65.53
-1376.29	145.41
-1373.60	225.28
-1370.91	147.45
-1368.23	182.27
-1365.54	251.90
-1362.86	204.80
-1360.17	176.13
-1357.49	153.60
-1354.81	174.08
-1352.13	137.21
-1349.45	167.93
-1346.77	153.60
-1344.09	327.68
-1341.42	202.75
-1338.74	120.83
-1336.07	329.72
-1333.39	83.97
-1330.72	276.48
-1328.05	112.64
-1325.38	196.61
-1322.71	159.74
-1320.04	86.01
-1317.37	79.87
-1314.71	122.88
-1312.04	210.94
-1309.38	157.69
-1306.72	198.65
-1304.05	100.35
-1301.39	75.77
-1298.73	210.94
-1296.08	137.21
-1293.42	122.88
-1290.76	186.37
-1288.10	194.56
-1285.45	55.30
-1282.80	96.25
-1280.14	155.65
-1277.49	165.89
-1274.84	188.41
-1272.19	194.56
-1269.54	172.03
-1266.90	196.61
-1264.25	247.80
-1261.60	172.03
-1258.96	268.28
-1256.32	131.07
-1253.67	202.75
-1251.03	126.97
-1248.39	98.30
-1245.75	165.89
-1243.11	169.98
-1240.48	49.15
-1237.84	241.66
-1235.20	202.75
-1232.57	81.92
-1229.94	237.56
-1227.31	172.03
-1224.67	129.02
-1222.04	169.98
-1219.41	104.45
-1216.79	135.17
-1214.16	155.65
-1211.53	165.89
-1208.91	90.11
-1206.28	176.13
-1203.66	227.32
-1201.04	165.89
-1198.42	305.15
-1195.80	239.61
-1193.18	141.31
-1190.56	210.94
-1187.94	63.49
-1185.33	204.80
-1182.71	161.79
-1180.10	198.65
-1177.49	309.24
-1174.87	143.36
-1172.26	26.62
-1169.65	256.00
-1167.04	135.17
-1164.44	206.84
-1161.83	137.21
-1159.22	75.77
-1156.62	288.76
-1154.01	194.56
-1151.41	61.44
-1148.81	88.06
-1146.21	169.98
-1143.61	247.80
-1141.01	169.98
-1138.41	63.49
-1135.81	106.49
-1133.22	217.08
-1130.62	204.80
-1128.03	182.27
-1125.44	120.83
-1122.84	331.77
-1120.25	96.25
-1117.66	239.61
-1115.07	124.93
-1112.49	124.93
-1109.90	159.74
-1107.31	65.53
-1104.73	215.04
-1102.14	174.08
-1099.56	157.69
-1096.98	100.35
-1094.40	12.29
-1091.82	186.37
-1089.24	208.89
-1086.66	149.50
-1084.08	178.17
-1081.51	227.32
-1078.93	81.92
-1076.36	233.47
-1073.79	163.84
-1071.21	210.94
-1068.64	180.22
-1066.07	69.63
-1063.50	251.90
-1060.93	98.30
-1058.37	262.14
-1055.80	67.58
-1053.24	147.45
-1050.67	129.02
-1048.11	190.46
-1045.55	81.92
-1042.99	192.51
-1040.42	202.75
-1037.87	149.50
-1035.31	79.87
-1032.75	135.17
-1030.19	167.93
-1027.64	155.65
-1025.08	161.79
-1022.53	149.50
-1019.98	71.68
-1017.43	108.54
-1014.88	223.23
-1012.33	90.11
-1009.78	122.88
-1007.23	100.35
-1004.68	219.13
-1002.14	180.22
-999.59	215.04
-997.05	129.02
-994.51	122.88
-991.96	192.51
-989.42	206.84
-986.88	133.12
-984.34	28.67
-981.81	40.96
-979.27	112.64
-976.73	243.71
-974.20	36.86
-971.66	147.45
-969.13	69.63
-966.60	145.41
-964.07	126.97
-961.54	147.45
-959.01	90.11
-956.48	184.32
-953.95	-20.48
-951.43	163.84
-948.90	30.72
-946.38	215.04
-943.85	151.55
-941.33	155.65
-938.81	20.48
-936.29	186.37
-933.77	204.80
-931.25	274.43
-928.73	122.88
-926.22	63.49
-923.70	90.11
-921.19	92.16
-918.67	100.35
-916.16	137.21
-913.65	159.74
-911.14	249.85
-908.63	100.35
-906.12	198.65
-903.61	143.36
-901.10	210.94
-898.59	51.20
-896.09	65.54
-893.59	67.58
-891.08	239.61
-888.58	227.32
-886.08	165.89
-883.58	81.92
-881.08	198.65
-878.58	172.03
-876.08	172.03
-873.58	114.69
-871.09	151.55
-868.59	81.92
-866.10	112.64
-863.61	100.35
-861.12	122.88
-858.62	210.94
-856.13	247.80
-853.64	65.53
-851.16	247.80
-848.67	92.16
-846.18	75.77
-843.70	276.48
-841.21	194.56
-838.73	184.32
-836.25	169.98
-833.77	131.07
-831.28	178.17
-828.81	169.98
-826.33	135.17
-823.85	153.60
-821.37	221.18
-818.90	133.12
-816.42	151.55
-813.95	124.93
-811.47	208.89
-809.00	184.32
-806.53	122.88
-804.06	184.32
-801.59	157.69
-799.12	129.02
-796.65	202.75
-794.19	280.57
-791.72	86.01
-789.26	202.75
-786.79	108.54
-784.33	198.65
-781.87	153.60
-779.41	184.32
-776.95	36.86
-774.49	235.52
-772.03	165.89
-769.57	40.96
-767.12	104.45
-764.66	100.35
-762.21	92.16
-759.75	102.40
-757.30	135.17
-754.85	165.89
-752.40	194.56
-749.95	100.35
-747.50	241.66
-745.05	182.27
-742.60	137.21
-740.16	106.49
-737.71	131.07
-735.27	204.80
-732.82	122.88
-730.38	143.36
-727.94	53.25
-725.50	92.16
-723.06	129.02
-720.62	77.82
-718.18	98.30
-715.74	147.45
-713.31	186.37
-710.87	217.08
-708.44	135.17
-706.01	118.78
-703.57	204.80
-701.14	223.23
-698.71	210.94
-696.28	184.32
-693.85	98.30
-691.42	118.78
-689.00	169.98
-686.57	69.63
-684.15	65.53
-681.72	104.45
-679.30	165.89
-676.88	90.11
-674.45	188.41
-672.03	145.41
-669.61	139.26
-667.20	208.89
-664.78	153.60
-662.36	182.27
-659.94	251.90
-657.53	196.61
-655.12	206.84
-652.70	153.60
-650.29	163.84
-647.88	182.27
-645.47	167.93
-643.06	188.41
-640.65	59.39
-638.24	212.99
-635.83	147.45
-633.43	286.72
-631.02	73.73
-628.62	239.61
-626.22	172.03
-623.81	198.65
-621.41	200.70
-619.01	174.08
-616.61	120.83
-614.21	167.93
-611.81	247.80
-609.42	137.21
-607.02	176.13
-604.63	229.37
-602.23	206.84
-599.84	223.23
-597.45	126.97
-595.05	176.13
-592.66	104.45
-590.27	210.94
-587.88	61.44
-585.50	106.49
-583.11	206.84
-580.72	200.70
-578.34	296.96
-575.95	53.25
-573.57	104.45
-571.19	225.28
-568.80	227.32
-566.42	116.73
-564.04	178.17
-561.66	186.37
-559.29	178.17
-556.91	223.23
-554.53	135.17
-552.16	174.08
-549.78	210.94
-547.41	-18.43
-545.03	196.61
-542.66	188.41
-540.29	178.17
-537.92	155.65
-535.55	98.30
-533.18	245.76
-530.81	135.17
-528.45	94.21
-526.08	190.46
-523.72	188.41
-521.35	204.80
-518.99	151.55
-516.63	143.36
-514.27	108.54
-511.90	116.73
-509.54	174.08
-507.19	223.23
-504.83	274.43
-502.47	243.71
-500.11	96.25
-497.76	124.93
-495.40	129.02
-493.05	225.28
-490.70	182.27
-488.35	143.36
-486.00	157.69
-483.65	272.38
-481.30	176.13
-478.95	284.67
-476.60	161.79
-474.25	221.18
-471.91	69.63
-469.56	245.76
-467.22	161.79
-464.88	274.43
-462.53	192.51
-460.19	204.80
-457.85	116.73
-455.51	184.32
-453.17	282.62
-450.84	86.01
-448.50	223.23
-446.16	81.92
-443.83	215.04
-441.49	176.13
-439.16	249.85
-436.83	149.50
-434.50	280.57
-432.16	172.03
-429.83	323.58
-427.50	32.77
-425.18	245.76
-422.85	251.90
-420.52	143.36
-418.20	110.59
-415.87	98.30
-413.55	149.50
-411.22	182.27
-408.90	133.12
-406.58	26.62
-404.26	178.17
-401.94	176.13
-399.62	198.65
-397.30	239.61
-394.99	182.27
-392.67	135.17
-390.35	71.68
-388.04	200.70
-385.73	178.17
-383.41	63.49
-381.10	77.82
-378.79	73.73
-376.48	157.69
-374.17	219.13
-371.86	2.05
-369.55	167.93
-367.25	188.41
-364.94	124.93
-362.64	133.12
-360.33	120.83
-358.03	59.39
-355.73	149.50
-353.42	147.45
-351.12	200.70
-348.82	219.13
-346.52	126.97
-344.23	153.60
-341.93	118.78
-339.63	194.56
-337.34	45.06
-335.04	157.69
-332.75	114.69
-330.45	245.76
-328.16	118.78
-325.87	86.01
-323.58	315.39
-321.29	176.13
-319.00	114.69
-316.71	217.08
-314.42	227.32
-312.14	139.26
-309.85	110.59
-307.57	92.16
-305.28	299.00
-303.00	157.69
-300.72	149.50
-298.44	65.53
-296.16	24.58
-293.88	176.13
-291.60	129.02
-289.32	260.09
-287.04	167.93
-284.77	167.93
-282.49	147.45
-280.22	116.73
-277.94	96.25
-275.67	100.35
-273.40	180.22
-271.13	135.17
-268.85	221.18
-266.59	253.95
-264.32	149.50
-262.05	159.74
-259.78	108.54
-257.51	186.37
-255.25	122.88
-252.98	98.30
-250.72	169.98
-248.46	208.89
-246.20	22.53
-243.93	143.36
-241.67	36.86
-239.41	49.15
-237.16	186.37
-234.90	161.79
-232.64	169.98
-230.38	161.79
-228.13	67.58
-225.87	104.45
-223.62	94.21
-221.37	108.54
-219.11	26.62
-216.86	149.50
-214.61	174.08
-212.36	167.93
-210.11	102.40
-207.87	92.16
-205.62	120.83
-203.37	69.63
-201.13	106.49
-198.88	63.49
-196.64	55.30
-194.39	131.07
-192.15	227.32
-189.91	129.02
-187.67	141.31
-185.43	182.27
-183.19	200.70
-180.95	112.64
-178.72	86.01
-176.48	122.88
-174.24	264.19
-172.01	59.39
-169.77	77.82
-167.54	192.51
-165.31	18.43
-163.08	90.11
-160.85	219.13
-158.62	169.98
-156.39	83.97
-154.16	129.02
-151.93	131.07
-149.70	114.69
-147.48	190.46
-145.25	188.41
-143.03	108.54
-140.81	141.31
-138.58	157.69
-136.36	243.71
-134.14	73.73
-131.92	126.97
-129.70	159.74
-127.48	124.93
-125.26	137.21
-123.05	149.50
-120.83	102.40
-118.62	200.70
-116.40	83.97
-114.19	26.62
-111.97	219.13
-109.76	139.26
-107.55	45.06
-105.34	137.21
-103.13	18.43
-100.92	116.73
-98.71	204.80
-96.51	198.65
-94.30	235.52
-92.09	178.17
-89.89	167.93
-87.69	176.13
-85.48	108.54
-83.28	4.10
-81.08	208.89
-78.88	155.65
-76.68	22.53
-74.48	270.33
-72.28	165.89
-70.08	155.65
-67.88	178.17
-65.69	32.77
-63.49	167.93
-61.30	225.28
-59.11	143.36
-56.91	63.49
-54.72	206.84
-52.53	155.65
-50.34	112.64
-48.15	290.81
-45.96	75.77
-43.77	135.17
-41.59	137.21
-39.40	36.86
-37.21	225.28
-35.03	8.19
-32.84	126.97
-30.66	-10.24
-28.48	188.41
-26.30	172.03
-24.12	212.99
-21.94	102.40
-19.76	204.80
-17.58	262.14
-15.40	487.42
-13.22	983.02
-11.05	1267.69
-8.87	1632.23
-6.70	1951.71
-4.52	2168.80
-2.35	2064.35
-0.18	2088.93
1.99	2269.15
4.16	1939.43
6.33	1609.70
8.50	1261.55
10.67	1044.46
12.84	1212.40
15.00	894.96
17.17	804.85
19.33	628.73
21.50	436.22
23.66	440.31
25.83	352.25
27.99	358.39
30.15	317.44
32.31	276.48
34.47	184.32
36.63	141.31
38.79	137.21
40.94	186.37
43.10	276.48
45.25	131.07
47.41	108.54
49.56	100.35
51.72	139.26
53.87	157.69
56.02	184.32
58.17	176.13
60.32	143.36
62.47	159.74
64.62	178.17
66.77	204.80
68.92	133.12
71.06	139.26
73.21	176.13
75.35	145.41
77.50	30.72
79.64	247.80
81.78	294.91
83.92	161.79
86.06	112.64
88.20	122.88
90.34	165.89
92.48	86.01
94.62	100.35
96.76	196.61
98.89	239.61
101.03	47.10
103.16	124.93
105.30	233.47
107.43	245.76
109.56	235.52
111.69	217.08
113.82	200.70
115.95	337.91
118.08	280.57
120.21	346.11
122.34	313.34
124.47	385.02
126.59	425.98
128.72	370.68
130.84	503.80
132.97	526.33
135.09	483.32
137.21	544.76
139.33	475.13
141.45	716.79
143.57	641.01
145.69	628.73
147.81	802.80
149.93	776.18
152.05	858.10
154.16	954.35
156.28	980.98
158.39	1089.52
160.51	1259.50
162.62	1318.89
164.73	1470.44
166.85	1777.64
168.96	1837.03
171.07	1986.53
173.18	2234.33
175.28	2230.24
177.39	2344.92
179.50	2394.08
181.61	2480.09
183.71	2445.27
185.82	2346.97
187.92	2308.06
190.02	2105.31
192.13	1845.22
194.23	1886.18
196.33	1660.90
198.43	1472.49
200.53	1372.14
202.63	1294.32
204.72	1327.08
206.82	1023.98
208.92	1075.18
211.01	950.26
213.11	937.97
215.20	913.39
217.30	770.04
219.39	772.08
221.48	759.80
223.57	737.27
225.66	706.55
227.75	614.39
229.84	532.47
231.93	565.24
234.02	520.18
236.10	565.24
238.19	542.71
240.28	569.34
242.36	616.44
244.44	669.69
246.53	501.75
248.61	585.72
250.69	702.45
252.77	563.19
254.85	602.10
256.93	659.45
259.01	577.53
261.09	438.27
263.16	509.94
265.24	665.59
267.32	442.36
269.39	358.39
271.46	372.73
273.54	378.87
275.61	462.84
277.68	325.63
279.75	438.27
281.82	368.63
283.89	440.31
285.96	264.19
288.03	319.48
290.10	282.62
292.16	272.38
294.23	292.86
296.29	278.52
298.36	366.59
300.42	278.52
302.49	497.66
304.55	401.40
306.61	233.47
308.67	282.62
310.73	296.96
312.79	344.06
314.85	434.17
316.90	313.34
318.96	352.25
321.02	239.61
323.07	438.27
325.13	292.86
327.18	350.20
329.24	350.20
331.29	387.07
333.34	415.74
335.39	344.06
337.44	294.91
339.49	327.68
341.54	421.88
343.59	284.67
345.64	315.39
347.68	239.61
349.73	309.24
351.77	231.42
353.82	303.10
355.86	317.44
357.90	380.92
359.95	260.09
361.99	294.91
364.03	374.78
366.07	321.53
368.11	307.20
370.15	274.43
372.19	407.55
374.22	409.59
376.26	323.58
378.29	458.74
380.33	387.07
382.36	393.21
384.40	339.96
386.43	546.81
388.46	456.70
390.49	464.89
392.52	376.83
394.55	473.08
396.58	432.12
398.61	538.62
400.64	409.59
402.67	452.60
404.69	393.21
406.72	473.08
408.74	471.03
410.77	411.64
412.79	501.75
414.81	548.86
416.84	569.34
418.86	419.83
420.88	499.70
422.90	219.13
424.92	423.93
426.94	415.74
428.95	389.11
430.97	278.52
432.99	448.51
435.00	389.11
437.02	368.63
439.03	495.61
441.04	411.64
443.06	393.21
445.07	364.54
447.08	366.59
449.09	428.03
451.10	368.63
453.11	366.59
455.12	378.87
457.13	325.63
459.13	479.22
461.14	372.73
463.14	423.93
465.15	233.47
467.15	430.07
469.16	409.59
471.16	479.22
473.16	464.89
475.16	407.55
477.16	323.58
479.16	409.59
481.16	479.22
483.16	432.12
485.16	374.78
487.15	468.98
489.15	432.12
491.15	307.20
493.14	399.35
495.14	387.07
497.13	548.86
499.12	444.41
501.11	391.16
503.11	403.45
505.10	493.56
507.09	544.76
509.07	468.98
511.06	372.73
513.05	430.07
515.04	538.62
517.02	552.95
519.01	567.29
521.00	563.19
522.98	536.57
524.96	507.90
526.95	661.49
528.93	753.65
530.91	614.39
532.89	534.52
534.87	677.88
536.85	561.14
538.83	565.24
540.81	522.23
542.78	536.57
544.76	548.86
546.74	509.94
548.71	526.33
550.69	483.32
552.66	423.93
554.63	442.36
556.60	417.79
558.58	333.82
560.55	348.15
562.52	358.39
564.49	428.03
566.46	483.32
568.42	282.62
570.39	321.53
572.36	425.98
574.32	385.02
576.29	268.28
578.25	354.30
580.22	364.54
582.18	423.93
584.14	432.12
586.11	395.26
588.07	557.05
590.03	393.21
591.99	579.58
593.95	409.59
595.90	518.14
597.86	716.79
599.82	964.59
601.78	1026.03
603.73	1202.16
605.69	1312.75
607.64	1421.29
609.59	1462.25
611.55	1466.35
613.50	1406.95
615.45	1398.76
617.40	1345.52
619.35	940.02
621.30	958.45
623.25	903.15
625.20	796.66
627.15	686.07
629.09	669.69
631.04	620.53
632.98	645.11
634.93	497.66
636.87	579.58
638.82	438.27
640.76	520.18
642.70	509.94
644.64	393.21
646.58	561.14
648.52	333.82
650.46	368.63
652.40	407.55
654.34	382.97
656.27	425.98
658.21	325.63
660.15	385.02
662.08	372.73
664.02	374.78
665.95	460.79
667.88	491.51
669.82	460.79
671.75	350.20
673.68	430.07
675.61	557.05
677.54	516.09
679.47	520.18
681.40	454.65
683.32	538.62
685.25	534.52
687.18	526.33
689.10	407.55
691.03	440.31
692.95	468.98
694.87	481.27
696.80	481.27
698.72	520.18
700.64	458.74
702.56	548.86
704.48	358.39
706.40	385.02
708.32	456.70
710.24	448.51
712.16	432.12
714.07	380.92
715.99	374.78
717.90	428.03
719.82	401.40
721.73	555.00
723.65	356.35
725.56	503.80
727.47	446.46
729.38	458.74
731.29	382.97
733.20	356.35
735.11	468.98
737.02	274.43
738.93	520.18
740.84	344.06
742.74	419.83
744.65	368.63
746.55	419.83
748.46	473.08
750.36	411.64
752.27	364.54
754.17	452.60
756.07	247.80
757.97	346.11
759.87	395.26
761.77	516.09
763.67	385.02
765.57	401.40
767.47	395.26
769.37	436.22
771.26	509.94
773.16	329.72
775.06	364.54
776.95	538.62
778.84	546.81
780.74	487.42
782.63	552.95
784.52	503.80
786.41	677.88
788.30	712.69
790.19	634.87
792.08	753.65
793.97	837.62
795.86	647.16
797.75	704.50
799.63	614.39
801.52	575.48
803.41	591.86
805.29	518.14
807.18	520.18
809.06	483.32
810.94	483.32
812.82	526.33
814.70	495.61
816.59	460.79
818.47	487.42
820.35	401.40
822.22	548.86
824.10	503.80
825.98	546.81
827.86	526.33
829.73	491.51
831.61	409.59
833.48	489.46
835.36	606.20
837.23	528.38
839.10	509.94
840.98	632.82
842.85	651.25
844.72	667.64
846.59	647.16
848.46	700.41
850.33	813.04
852.20	696.31
854.06	798.71
855.93	606.20
857.80	702.45
859.66	774.13
861.53	591.86
863.39	524.28
865.26	505.85
867.12	503.80
868.98	432.12
870.84	436.22
872.71	452.60
874.57	372.73
876.43	563.19
878.29	397.31
880.14	432.12
882.00	342.01
883.86	458.75
885.72	419.83
887.57	507.90
889.43	450.55
891.28	397.31
893.14	450.55
894.99	444.41
896.84	436.22
898.69	483.32
900.55	368.63
902.40	425.98
904.25	544.76
906.10	352.25
907.95	563.19
909.79	454.65
911.64	409.59
913.49	438.27
915.34	393.21
917.18	378.87
919.03	546.81
920.87	401.40
922.71	573.43
924.56	415.74
926.40	524.28
928.24	477.18
930.08	260.09
931.92	552.95
933.76	509.94
935.60	399.35
937.44	548.86
939.28	505.85
941.12	565.24
942.95	376.83
944.79	466.94
946.62	440.31
948.46	444.41
950.29	450.55
952.13	425.98
953.96	542.71
955.79	520.18
957.62	421.88
959.46	516.09
961.29	438.27
963.12	477.18
964.94	471.03
966.77	438.27
968.60	532.47
970.43	548.86
972.25	524.28
974.08	493.56
975.91	503.80
977.73	585.72
979.55	468.98
981.38	542.71
983.20	614.39
985.02	419.83
986.84	540.66
988.66	585.72
990.49	651.25
992.30	538.62
994.12	628.73
995.94	931.83
997.76	983.02
999.58	956.40
1001.39	1015.79
1003.21	993.26
1005.02	974.83
1006.84	989.17
1008.65	952.31
1010.47	1105.90
1012.28	798.71
1014.09	1015.79
1015.90	899.06
1017.71	759.80
1019.52	755.70
1021.33	722.93
1023.14	794.61
1024.95	663.54
1026.76	610.29
1028.56	737.27
1030.37	536.57
1032.18	638.97
1033.98	581.62
1035.79	532.47
1037.59	442.36
1039.39	538.62
1041.20	636.92
1043.00	514.04
1044.80	542.71
1046.60	624.63
1048.40	542.71
1050.20	403.45
1052.00	454.65
1053.80	548.86
1055.59	546.81
1057.39	593.91
1059.19	600.05
1060.98	747.51
1062.78	530.42
1064.57	522.23
1066.37	552.95
1068.16	540.66
1069.95	790.52
1071.75	739.32
1073.54	710.65
1075.33	624.63
1077.12	583.67
1078.91	688.12
1080.70	901.11
1082.48	657.40
1084.27	724.98
1086.06	565.24
1087.85	684.02
1089.63	804.85
1091.42	745.46
1093.20	831.48
1094.99	862.19
1096.77	882.67
1098.55	1150.96
1100.33	1189.87
1102.12	1456.11
1103.90	1564.65
1105.68	1673.19
1107.46	1751.01
1109.24	1562.60
1111.01	1499.11
1112.79	1570.79
1114.57	1447.91
1116.35	1320.94
1118.12	1118.19
1119.90	1136.62
1121.67	1103.86
1123.45	1110.00
1125.22	997.36
1126.99	878.58
1128.77	774.13
1130.54	835.57
1132.31	890.87
1134.08	772.08
1135.85	870.39
1137.62	702.45
1139.39	739.32
1141.15	833.52
1142.92	755.70
1144.69	761.84
1146.46	708.60
1148.22	743.41
1149.99	880.63
1151.75	796.66
1153.51	911.35
1155.28	1124.33
1157.04	1273.84
1158.80	1402.86
1160.56	1308.65
1162.32	1355.76
1164.08	1353.71
1165.84	1546.22
1167.60	1341.42
1169.36	1175.53
1171.12	1253.36
1172.88	1185.77
1174.63	1036.27
1176.39	1126.38
1178.14	960.50
1179.90	905.20
1181.65	892.91
1183.41	757.75
1185.16	684.02
1186.91	835.57
1188.66	716.79
1190.41	724.98
1192.16	817.14
1193.91	624.63
1195.66	536.57
1197.41	622.58
1199.16	583.67
1200.91	638.97
1202.66	542.71
1204.40	511.99
1206.15	534.52
1207.89	608.25
1209.64	567.29
1211.38	514.04
1213.12	528.38
1214.87	612.34
1216.61	542.71
1218.35	583.67
1220.09	618.49
1221.83	450.55
1223.57	563.19
1225.31	667.64
1227.05	688.12
1228.79	587.77
1230.52	538.62
1232.26	530.42
1234.00	655.35
1235.73	415.74
1237.47	518.14
1239.20	612.34
1240.94	593.91
1242.67	671.73
1244.40	466.94
1246.13	704.50
1247.86	792.56
1249.60	616.44
1251.33	679.93
1253.06	608.25
1254.78	686.07
1256.51	577.53
1258.24	608.25
1259.97	581.62
1261.69	602.10
1263.42	673.78
1265.15	669.69
1266.87	555.00
1268.59	587.77
1270.32	759.80
1272.04	618.49
1273.76	696.31
1275.49	546.81
1277.21	516.09
1278.93	499.70
1280.65	731.12
1282.37	704.50
1284.09	604.15
1285.81	661.49
1287.52	663.54
1289.24	559.10
1290.96	718.84
1292.67	557.05
1294.39	555.00
1296.10	731.12
1297.82	655.35
1299.53	661.49
1301.24	675.83
1302.96	802.80
1304.67	866.29
1306.38	794.61
1308.09	903.15
1309.80	854.00
1311.51	1048.56
1313.22	907.25
1314.93	870.39
1316.64	1013.74
1318.34	888.82
1320.05	1048.56
1321.75	1153.01
1323.46	1048.56
1325.17	1089.52
1326.87	1382.38
1328.57	1349.61
1330.28	1449.96
1331.98	1927.14
1333.68	2099.17
1335.38	2736.09
1337.08	3532.75
1338.78	4532.15
1340.48	6025.12
1342.18	7378.83
1343.88	8355.71
1345.58	9129.84
1347.28	9490.29
1348.97	9953.13
1350.67	9267.06
1352.36	8714.11
1354.06	8089.48
1355.75	7135.12
1357.45	6059.94
1359.14	5136.31
1360.83	4456.38
1362.53	3844.04
1364.22	3065.81
1365.91	2777.05
1367.60	2428.89
1369.29	2160.61
1370.98	1822.69
1372.67	1691.62
1374.35	1595.37
1376.04	1443.82
1377.73	1435.63
1379.41	1189.87
1381.10	1257.45
1382.79	1232.88
1384.47	972.79
1386.15	1034.22
1387.84	1021.94
1389.52	978.93
1391.20	989.17
1392.88	1013.74
1394.57	1060.85
1396.25	931.83
1397.93	888.82
1399.61	882.67
1401.28	880.63
1402.96	903.15
1404.64	847.86
1406.32	837.62
1407.99	741.36
1409.67	935.92
1411.35	774.13
1413.02	811.00
1414.70	743.41
1416.37	866.29
1418.04	882.67
1419.71	991.22
1421.39	811.00
1423.06	727.03
1424.73	909.30
1426.40	800.76
1428.07	880.63
1429.74	788.47
1431.41	782.32
1433.08	794.61
1434.74	800.76
1436.41	802.80
1438.08	704.50
1439.74	741.36
1441.41	679.93
1443.07	571.38
1444.74	675.83
1446.40	735.22
1448.06	702.45
1449.72	649.21
1451.39	628.73
1453.05	706.55
1454.71	911.35
1456.37	673.78
1458.03	823.28
1459.69	794.61
1461.35	862.19
1463.00	653.30
1464.66	749.56
1466.32	823.28
1467.97	767.99
1469.63	845.81
1471.28	845.81
1472.94	1017.84
1474.59	923.63
1476.25	800.76
1477.90	968.69
1479.55	1028.08
1481.20	966.64
1482.85	1034.22
1484.50	847.86
1486.15	1052.66
1487.80	874.48
1489.45	923.63
1491.10	772.08
1492.75	880.63
1494.40	774.13
1496.04	782.32
1497.69	839.67
1499.33	1003.50
1500.98	1034.22
1502.62	980.98
1504.27	1093.62
1505.91	970.74
1507.55	1077.23
1509.19	1048.56
1510.84	1292.27
1512.48	1337.32
1514.12	1345.52
1515.76	1609.70
1517.40	1644.52
1519.04	1986.53
1520.67	2072.54
1522.31	2213.85
1523.95	2326.49
1525.59	2181.09
1527.22	2381.79
1528.86	2349.02
1530.49	2244.57
1532.13	2000.87
1533.76	2101.22
1535.39	1847.27
1537.03	1693.67
1538.66	1497.07
1540.29	1409.00
1541.92	1245.16
1543.55	1062.90
1545.18	1198.06
1546.81	1126.38
1548.44	1132.53
1550.07	1052.66
1551.70	1013.74
1553.32	1026.03
1554.95	1122.29
1556.58	1120.24
1558.20	1196.01
1559.83	1171.44
1561.45	1253.36
1563.07	1349.61
1564.70	1441.77
1566.32	1521.64
1567.94	1552.36
1569.56	1761.25
1571.19	1699.81
1572.81	1845.22
1574.43	2025.44
1576.05	2224.09
1577.66	2301.92
1579.28	2996.18
1580.90	3440.59
1582.52	3860.42
1584.14	4171.71
1585.75	4450.24
1587.37	4812.73
1588.98	4913.08
1590.60	4874.17
1592.21	4468.67
1593.82	4239.30
1595.44	3540.94
1597.05	3413.96
1598.66	2697.17
1600.27	2338.78
1601.88	2090.98
1603.49	931.83
1605.10	1675.24
1606.71	1445.87
1608.32	1331.18
1609.93	1335.28
1611.54	1132.53
1613.14	1140.72
1614.75	1095.66
1616.36	985.07
1617.96	976.88
1619.57	917.49
1621.17	892.91
1622.77	774.13
1624.38	976.88
1625.98	954.35
1627.58	872.43
1629.18	813.04
1630.78	724.98
1632.38	843.76
1633.98	878.58
1635.58	905.20
1637.18	731.12
1638.78	931.83
1640.38	679.93
1641.98	915.44
1643.57	831.48
1645.17	919.54
1646.76	821.24
1648.36	890.87
1649.95	712.69
1651.55	763.89
1653.14	757.75
1654.73	856.05
1656.33	860.15
1657.92	749.56
1659.51	743.41
1661.10	714.74
1662.69	710.65
1664.28	815.09
1665.87	770.04
1667.46	661.49
1669.05	759.80
1670.63	864.24
1672.22	788.47
1673.81	684.02
1675.39	860.15
1676.98	767.99
1678.56	774.13
1680.15	802.80
1681.73	854.00
1683.31	833.52
1684.90	753.65
1686.48	843.76
1688.06	782.32
1689.64	833.52
1691.22	733.17
1692.80	757.75
1694.38	798.71
1695.96	815.09
1697.54	860.15
1699.12	776.18
1700.69	802.80
1702.27	694.26
1703.85	759.80
1705.42	598.01
1707.00	796.66
1708.57	759.80
1710.15	821.24
1711.72	684.02
1713.29	591.86
1714.87	882.67
1716.44	909.30
1718.01	784.37
1719.58	792.56
1721.15	643.06
1722.72	647.16
1724.29	862.19
1725.86	718.84
1727.43	798.71
1729.00	823.28
1730.56	753.65
1732.13	772.08
1733.70	817.14
1735.26	800.76
1736.83	903.15
1738.39	778.23
1739.96	888.82
1741.52	944.11
1743.08	747.51
1744.65	890.87
1746.21	761.84
1747.77	722.93
1749.33	872.43
1750.89	886.77
1752.45	757.75
1754.01	849.91
1755.57	847.86
1757.13	731.12
1758.69	724.98
1760.24	827.38
1761.80	745.46
1763.36	792.56
1764.91	915.44
1766.47	714.74
1768.02	819.19
1769.58	798.71
1771.13	856.05
1772.68	692.21
1774.24	710.65
1775.79	727.03
1777.34	638.97
1778.89	741.36
1780.44	868.34
1781.99	835.57
1783.54	821.24
1785.09	741.36
1786.64	735.22
1788.19	837.62
1789.73	909.30
1791.28	819.19
1792.83	876.53
1794.37	772.08
1795.92	843.76
1797.46	890.87
1799.01	878.58
1800.55	858.10
1802.09	837.62
1803.64	622.58
1805.18	864.24
1806.72	825.33
1808.26	811.00
1809.80	901.11
1811.34	577.53
1812.88	847.86
1814.42	747.51
1815.96	671.73
1817.50	829.43
1819.04	745.46
1820.57	811.00
1822.11	854.00
1823.65	784.37
1825.18	782.32
1826.72	743.41
1828.25	643.06
1829.78	811.00
1831.32	829.43
1832.85	811.00
1834.38	905.20
1835.92	737.27
1837.45	759.80
1838.98	858.10
1840.51	751.60
1842.04	821.24
1843.57	808.95
1845.10	737.27
1846.62	827.38
1848.15	702.45
1849.68	698.36
1851.21	880.63
1852.73	784.37
1854.26	823.28
1855.78	755.70
1857.31	823.28
1858.83	909.30
1860.36	798.71
1861.88	722.93
1863.40	882.67
1864.92	888.82
1866.45	757.75
1867.97	815.09
1869.49	808.95
1871.01	831.48
1872.53	774.13
1874.05	839.67
1875.57	804.85
1877.08	872.43
1878.60	899.06
1880.12	774.13
1881.64	774.13
1883.15	985.07
1884.67	737.27
1886.18	669.69
1887.70	763.89
1889.21	823.28
1890.72	897.01
1892.24	804.85
1893.75	813.04
1895.26	741.36
1896.77	722.93
1898.28	772.08
1899.79	884.72
1901.30	825.33
1902.81	907.25
1904.32	923.63
1905.83	786.42
1907.34	925.68
1908.85	735.22
1910.35	950.26
1911.86	1015.79
1913.37	806.90
1914.87	770.04
1916.38	667.64
1917.88	890.87
1919.39	735.22
1920.89	808.95
1922.39	761.84
1923.89	851.95
1925.40	813.04
1926.90	825.33
1928.40	782.32
1929.90	761.84
1931.40	880.63
1932.90	890.87
1934.40	813.04
1935.90	765.94
1937.39	886.77
1938.89	882.67
1940.39	806.90
1941.89	862.19
1943.38	688.12
1944.88	946.16
1946.37	798.71
1947.87	888.82
1949.36	753.65
1950.85	659.45
1952.35	739.32
1953.84	899.06
1955.33	817.14
1956.82	841.72
1958.31	829.43
1959.80	813.04
1961.29	780.28
1962.78	749.56
1964.27	806.90
1965.76	835.57
1967.25	847.86
1968.74	800.76
1970.22	835.57
1971.71	811.00
1973.20	739.32
1974.68	788.47
1976.17	868.34
1977.65	897.01
1979.14	870.39
1980.62	817.14
1982.10	800.76
1983.58	772.08
1985.07	819.19
1986.55	845.81
1988.03	837.62
1989.51	905.20
1990.99	751.60
1992.47	860.15
1993.95	845.81
1995.43	643.06
1996.91	897.01
1998.38	694.26
1999.86	741.36
2001.34	872.43
2002.81	737.27
2004.29	839.67
2005.76	735.22
2007.24	790.52
2008.71	788.47
2010.19	749.56
2011.66	724.98
2013.13	878.58
2014.60	741.36
2016.08	909.30
2017.55	782.32
2019.02	815.09
2020.49	835.57
2021.96	886.77
2023.43	870.39
2024.90	948.21
2026.36	880.63
2027.83	839.67
2029.30	706.55
2030.77	817.14
2032.23	729.08
2033.70	780.28
2035.16	804.85
2036.63	761.84
2038.09	856.05
2039.56	866.29
2041.02	831.48
2042.48	638.97
2043.95	886.77
2045.41	661.49
2046.87	757.75
2048.33	733.17
2049.79	727.03
2051.25	872.43
2052.71	684.02
2054.17	880.63
2055.63	874.48
2057.09	782.32
2058.54	911.35
2060.00	802.80
2061.46	841.72
2062.91	864.24
2064.37	700.41
2065.82	917.49
2067.28	735.22
2068.73	847.86
2070.19	862.19
2071.64	616.44
2073.09	743.41
2074.54	899.06
2076.00	796.66
2077.45	802.80
2078.90	694.26
2080.35	714.74
2081.80	851.95
2083.25	776.18
2084.70	739.32
2086.14	876.53
2087.59	890.87
2089.04	673.78
2090.49	767.99
2091.93	743.41
2093.38	817.14
2094.83	673.78
2096.27	800.76
2097.71	942.07
2099.16	759.80
2100.60	735.22
2102.05	698.36
2103.49	786.42
2104.93	727.03
2106.37	825.33
2107.81	872.43
2109.25	767.99
2110.69	724.98
2112.13	833.52
2113.57	894.96
2115.01	806.90
2116.45	608.25
2117.89	831.48
2119.33	821.24
2120.76	894.96
2122.20	710.65
2123.63	716.79
2125.07	835.57
2126.51	815.09
2127.94	761.84
2129.37	870.39
2130.81	729.08
2132.24	819.19
2133.67	718.84
2135.11	884.72
2136.54	792.56
2137.97	815.09
2139.40	780.28
2140.83	802.80
2142.26	694.26
2143.69	790.52
2145.12	845.81
2146.55	675.83
2147.97	684.02
2149.40	804.85
2150.83	894.96
2152.25	874.48
2153.68	864.24
2155.11	960.50
2156.53	829.43
2157.96	845.81
2159.38	751.60
2160.80	636.92
2162.23	831.48
2163.65	784.37
2165.07	698.36
2166.49	802.80
2167.91	720.88
2169.33	815.09
2170.75	798.71
2172.17	849.91
2173.59	700.41
2175.01	817.14
2176.43	696.31
2177.85	890.87
2179.27	745.46
2180.68	845.81
2182.10	749.56
2183.52	765.94
2184.93	796.66
2186.35	686.07
2187.76	847.86
2189.18	759.80
2190.59	821.24
2192.00	880.63
2193.42	679.93
2194.83	964.59
2196.24	888.82
2197.65	860.15
2199.06	821.24
2200.47	808.95
2201.88	784.37
2203.29	917.49
2204.70	837.62
2206.11	856.05
2207.52	647.16
2208.93	718.84
2210.33	593.91
2211.74	976.88
2213.15	788.47
2214.55	792.56
2215.96	827.38
2217.36	780.28
2218.77	911.35
2220.17	788.47
2221.57	821.24
2222.98	780.28
2224.38	796.66
2225.78	833.52
2227.18	864.24
2228.58	786.42
2229.99	892.91
2231.39	731.12
2232.79	811.00
2234.18	798.71
2235.58	755.70
2236.98	884.72
2238.38	663.54
2239.78	722.93
2241.17	833.52
2242.57	909.30
2243.97	749.56
2245.36	792.56
2246.76	833.52
2248.15	878.58
2249.55	720.88
2250.94	800.76
2252.33	749.56
2253.73	862.19
2255.12	645.11
2256.51	757.75
2257.90	720.88
2259.29	696.31
2260.68	804.85
2262.07	720.89
2263.46	790.52
2264.85	731.12
2266.24	718.84
2267.63	854.00
2269.02	802.80
2270.40	825.33
2271.79	749.56
2273.18	808.95
2274.56	700.41
2275.95	858.10
2277.33	747.51
2278.72	870.39
2280.10	757.75
2281.49	749.56
2282.87	751.60
2284.25	837.62
2285.63	686.07
2287.02	800.76
2288.40	860.15
2289.78	845.81
2291.16	851.96
2292.54	829.43
2293.92	696.31
2295.30	755.70
2296.68	843.76
2298.05	772.08
2299.43	765.94
2300.81	780.28
2302.19	792.56
2303.56	948.21
2304.94	813.04
2306.31	786.42
2307.69	815.09
2309.06	847.86
2310.44	806.90
2311.81	747.51
2313.19	798.71
2314.56	897.01
2315.93	913.39
2317.30	813.04
2318.67	720.88
2320.04	749.56
2321.41	757.75
2322.78	823.28
2324.15	714.74
2325.52	735.22
2326.89	839.67
2328.26	866.29
2329.63	675.83
2331.00	702.45
2332.36	862.19
2333.73	722.93
2335.09	788.47
2336.46	792.56
2337.83	753.65
2339.19	757.75
2340.55	753.65
2341.92	741.36
2343.28	714.74
2344.64	808.95
2346.01	770.04
2347.37	813.04
2348.73	729.08
2350.09	702.45
2351.45	786.42
2352.81	774.13
2354.17	980.98
2355.53	782.32
2356.89	770.04
2358.25	731.12
2359.61	716.79
2360.96	911.35
2362.32	817.14
2363.68	727.03
2365.03	813.04
2366.39	931.83
2367.74	655.35
2369.10	610.29
2370.45	827.38
2371.81	688.12
2373.16	813.04
2374.51	731.12
2375.86	763.89
2377.22	575.48
2378.57	831.48
2379.92	815.09
2381.27	761.84
2382.62	831.48
2383.97	747.51
2385.32	720.89
2386.67	702.45
2388.02	741.36
2389.37	679.93
2390.71	657.40
2392.06	684.02
2393.41	759.80
2394.75	729.08
2396.10	677.88
2397.44	704.50
2398.79	880.63
2400.13	675.83
2401.48	798.71
2402.82	694.26
2404.17	727.03
2405.51	792.56
2406.85	755.70
2408.19	720.88
2409.53	884.72
2410.87	684.02
2412.22	888.82
2413.56	634.87
2414.89	724.98
2416.23	874.48
2417.57	792.56
2418.91	681.97
2420.25	727.03
2421.59	837.62
2422.92	749.56
2424.26	788.47
2425.60	761.84
2426.93	753.65
2428.27	851.96
2429.60	751.60
2430.94	649.21
2432.27	747.51
2433.60	786.42
2434.94	671.73
2436.27	894.96
2437.60	729.08
2438.93	884.72
2440.27	739.32
2441.60	776.18
2442.93	854.00
2444.26	798.71
2445.59	868.34
2446.92	817.14
2448.24	665.59
2449.57	851.95
2450.90	899.06
2452.23	851.96
2453.55	960.50
2454.88	829.43
2456.21	923.63
2457.53	800.76
2458.86	733.17
2460.18	776.18
2461.51	767.99
2462.83	657.40
2464.15	800.76
2465.48	784.37
2466.80	759.80
2468.12	888.82
2469.44	720.89
2470.76	790.52
2472.09	706.55
2473.41	792.56
2474.73	854.00
2476.05	813.04
2477.36	835.57
2478.68	747.51
2480.00	630.77
2481.32	634.87
2482.64	778.23
2483.95	839.67
2485.27	827.38
2486.59	727.03
2487.90	751.60
2489.22	638.97
2490.53	665.59
2491.85	745.46
2493.16	806.90
2494.47	817.14
2495.79	747.51
2497.10	616.44
2498.41	708.60
2499.72	636.92
2501.03	727.03
2502.35	806.90
2503.66	626.68
2504.97	751.60
2506.28	802.80
2507.59	731.12
2508.89	714.74
2510.20	710.65
2511.51	659.45
2512.82	694.26
2514.12	778.23
2515.43	677.88
2516.74	733.17
2518.04	763.89
2519.35	835.57
2520.65	751.60
2521.96	686.07
2523.26	608.25
2524.57	790.52
2525.87	645.11
2527.17	731.12
2528.47	628.73
2529.78	655.35
2531.08	614.39
2532.38	636.92
2533.68	749.56
2534.98	626.68
2536.28	722.93
2537.58	542.71
2538.88	651.25
2540.18	675.83
2541.47	817.14
2542.77	659.45
2544.07	833.52
2545.37	681.97
2546.66	612.34
2547.96	780.28
2549.25	890.87
2550.55	714.74
2551.84	698.36
2553.14	610.29
2554.43	774.13
2555.72	688.12
2557.02	767.99
2558.31	686.07
2559.60	690.17
2560.89	708.60
2562.18	690.17
2563.48	882.67
2564.77	757.75
2566.06	759.80
2567.35	780.28
2568.63	561.14
2569.92	716.79
2571.21	643.06
2572.50	827.38
2573.79	821.24
2575.07	632.82
2576.36	653.30
2577.65	763.89
2578.93	880.63
2580.22	694.26
2581.50	651.25
2582.79	741.36
2584.07	616.44
2585.36	692.21
2586.64	823.28
2587.92	749.56
2589.20	669.69
2590.49	761.84
2591.77	591.86
2593.05	634.87
2594.33	772.08
2595.61	757.75
2596.89	724.98
2598.17	700.41
2599.45	878.58
2600.73	677.88
2602.00	729.08
2603.28	669.69
2604.56	593.91
2605.84	772.08
2607.11	602.10
2608.39	767.99
2609.67	667.64
2610.94	694.26
2612.22	718.84
2613.49	727.03
2614.76	763.89
2616.04	741.36
2617.31	765.94
2618.58	708.60
2619.86	778.23
2621.13	667.64
2622.40	702.45
2623.67	776.18
2624.94	874.48
2626.21	831.48
2627.48	612.34
2628.75	759.80
2630.02	624.63
2631.29	772.08
2632.56	770.04
2633.82	784.37
2635.09	546.81
2636.36	589.82
2637.63	716.79
2638.89	659.45
2640.16	794.61
2641.42	612.34
2642.69	663.54
2643.95	782.32
2645.22	718.84
2646.48	688.12
2647.74	751.60
2649.01	757.75
2650.27	569.34
2651.53	684.02
2652.79	712.69
2654.05	636.92
2655.31	610.29
2656.57	659.45
2657.83	700.41
2659.09	636.92
2660.35	669.69
2661.61	712.69
2662.87	645.11
2664.13	716.79
2665.38	710.65
2666.64	702.45
2667.90	727.03
2669.15	716.79
2670.41	714.74
2671.67	614.39
2672.92	706.55
2674.17	806.90
2675.43	817.14
2676.68	677.88
2677.94	714.74
2679.19	802.80
2680.44	657.40
2681.69	679.93
2682.95	819.19
2684.20	880.63
2685.45	782.32
2686.70	813.04
2687.95	720.88
2689.20	884.72
2690.45	763.89
2691.70	815.09
2692.94	710.65
2694.19	763.89
2695.44	858.10
2696.69	741.36
2697.93	628.73
2699.18	794.61
2700.43	661.49
2701.67	692.21
2702.92	585.72
2704.16	747.51
2705.41	675.83
2706.65	718.84
2707.89	794.61
2709.14	714.74
2710.38	765.94
2711.62	667.64
2712.86	620.53
2714.11	694.26
2715.35	630.77
2716.59	647.16
2717.83	767.99
2719.07	802.80
2720.31	675.83
2721.55	860.15
2722.78	681.97
2724.02	665.59
2725.26	610.29
2726.50	677.88
2727.73	671.73
2728.97	772.08
2730.21	763.89
2731.44	831.48
2732.68	731.12
2733.91	673.78
2735.15	659.45
2736.38	724.98
2737.62	628.73
2738.85	733.17
2740.08	696.31
2741.32	565.24
2742.55	667.64
2743.78	714.74
2745.01	727.03
2746.24	659.45
2747.47	677.88
2748.70	819.19
2749.93	759.80
2751.16	716.79
2752.39	798.71
2753.62	823.28
2754.85	641.01
2756.08	718.84
2757.30	716.79
2758.53	747.51
2759.76	720.89
2760.98	729.08
2762.21	690.17
2763.43	665.59
2764.66	729.08
2765.88	591.86
2767.11	569.34
2768.33	755.70
2769.55	745.46
2770.78	735.22
2772.00	630.77
2773.22	724.98
2774.44	731.12
2775.67	694.26
2776.89	661.49
2778.11	503.80
2779.33	776.18
2780.55	677.88
2781.77	661.49
2782.99	606.20
2784.20	702.45
2785.42	565.24
2786.64	587.77
2787.86	657.40
2789.07	688.12
2790.29	770.04
2791.51	763.89
2792.72	745.46
2793.94	647.16
2795.15	745.46
2796.37	688.12
2797.58	667.64
2798.80	591.86
2800.01	735.22
2801.22	700.41
2802.44	722.93
2803.65	722.93
2804.86	579.58
2806.07	571.38
2807.28	663.54
2808.49	651.25
2809.70	722.93
2810.91	722.93
2812.12	741.36
2813.33	718.84
2814.54	626.68
2815.75	749.56
2816.96	649.21
2818.16	749.56
2819.37	798.71
2820.58	735.22
2821.78	526.33
2822.99	688.12
2824.20	700.41
2825.40	647.16
2826.61	811.00
2827.81	645.11
2829.01	745.46
2830.22	681.97
2831.42	677.88
2832.62	716.79
2833.83	716.79
2835.03	704.50
2836.23	587.77
2837.43	632.82
2838.63	684.02
2839.83	661.49
2841.03	782.32
2842.23	550.90
2843.43	552.95
2844.63	702.45
2845.83	729.08
2847.03	626.68
2848.22	690.17
2849.42	823.28
2850.62	632.82
2851.81	702.45
2853.01	591.86
2854.21	518.14
2855.40	669.69
2856.60	688.12
2857.79	616.44
2858.99	649.21
2860.18	729.08
2861.37	749.56
2862.57	684.02
2863.76	559.10
2864.95	571.38
2866.14	745.46
2867.33	741.36
2868.52	841.72
2869.72	581.62
2870.91	727.03
2872.10	661.49
2873.28	536.57
2874.47	757.75
2875.66	602.10
2876.85	657.40
2878.04	745.46
2879.23	749.56
2880.41	722.93
2881.60	550.90
2882.79	665.59
2883.97	700.41
2885.16	714.74
2886.34	673.78
2887.53	618.49
2888.71	767.99
2889.90	622.58
2891.08	536.57
2892.26	610.29
2893.45	763.89
2894.63	696.31
2895.81	514.04
2896.99	593.91
2898.17	665.59
2899.36	657.40
2900.54	653.30
2901.72	618.49
2902.90	743.41
2904.08	702.45
2905.26	677.88
2906.43	479.22
2907.61	647.16
2908.79	649.21
2909.97	694.26
2911.14	638.97
2912.32	686.07
2913.50	696.31
2914.67	686.07
2915.85	620.53
2917.02	665.59
2918.20	772.08
2919.37	632.82
2920.55	593.91
2921.72	751.60
2922.90	667.64
2924.07	800.76
2925.24	602.10
2926.41	595.96
2927.58	651.25
2928.76	579.58
2929.93	698.36
2931.10	800.76
2932.27	735.22
2933.44	557.05
2934.61	630.77
2935.78	651.25
2936.95	733.17
2938.11	673.78
2939.28	739.32
2940.45	690.17
2941.62	616.44
2942.78	811.00
2943.95	540.66
2945.12	606.20
2946.28	741.36
2947.45	712.69
2948.61	688.12
2949.78	741.36
2950.94	630.77
2952.10	765.94
2953.27	741.36
2954.43	641.01
2955.59	552.95
2956.76	612.34
2957.92	649.21
2959.08	761.84
2960.24	731.12
2961.40	577.53
2962.56	612.34
2963.72	815.09
2964.88	722.93
2966.04	661.49
2967.20	684.02
2968.36	696.31
2969.52	686.07
2970.67	694.26
2971.83	710.65
2972.99	733.17
2974.14	724.98
2975.30	546.81
2976.46	589.82
2977.61	700.41
2978.77	561.14
2979.92	657.40
2981.08	739.32
2982.23	763.89
2983.38	557.05
2984.54	694.26
2985.69	808.95
2986.84	681.97
2987.99	757.75
2989.15	514.04
2990.30	616.44
2991.45	694.26
2992.60	567.29
2993.75	616.44
2994.90	636.92
2996.05	638.97
2997.20	751.60
2998.35	634.87
2999.49	643.06
3000.64	589.81
3001.79	522.23
3002.94	540.66
3004.08	745.46
3005.23	763.89
3006.38	612.34
3007.52	630.77
3008.67	729.08
3009.81	792.56
3010.96	600.05
3012.10	704.50
3013.25	534.52
3014.39	772.08
3015.53	708.60
3016.67	661.49
3017.82	808.95
3018.96	774.13
3020.10	690.17
3021.24	665.59
3022.38	735.22
3023.52	743.41
3024.66	712.69
3025.80	827.38
3026.94	729.08
3028.08	897.01
3029.22	784.37
3030.36	786.42
3031.50	811.00
3032.63	868.34
3033.77	802.80
3034.91	925.68
3036.04	806.90
3037.18	811.00
3038.32	745.46
3039.45	780.28
3040.59	800.76
3041.72	839.67
3042.86	815.09
3043.99	882.67
3045.12	886.77
3046.26	919.54
3047.39	776.18
3048.52	800.76
3049.65	798.71
3050.78	886.77
3051.92	958.45
3053.05	985.07
3054.18	915.44
3055.31	1021.94
3056.44	866.29
3057.57	1038.32
3058.70	856.05
3059.82	999.41
3060.95	876.53
3062.08	1187.82
3063.21	1071.09
3064.34	1107.95
3065.46	1345.52
3066.59	1277.93
3067.71	1339.37
3068.84	1269.74
3069.97	1388.52
3071.09	1409.00
3072.22	1501.16
3073.34	1546.22
3074.46	1687.53
3075.59	1705.96
3076.71	1638.38
3077.83	1630.18
3078.96	1769.44
3080.08	1753.06
3081.20	1679.33
3082.32	1777.64
3083.44	1777.64
3084.56	1632.23
3085.68	1628.14
3086.80	1650.66
3087.92	1619.94
3089.04	1603.56
3090.16	1433.58
3091.28	1552.36
3092.40	1468.39
3093.51	1318.89
3094.63	1239.02
3095.75	1296.36
3096.87	1224.69
3097.98	1255.40
3099.10	1112.05
3100.21	1218.54
3101.33	1165.29
3102.44	987.12
3103.56	882.67
3104.67	960.50
3105.79	1021.94
3106.90	890.87
3108.01	737.27
3109.12	935.92
3110.24	974.83
3111.35	849.91
3112.46	743.41
3113.57	903.15
3114.68	727.03
3115.79	780.28
3116.90	708.60
3118.01	653.30
3119.12	782.32
3120.23	649.21
3121.34	743.41
3122.45	647.16
3123.56	704.50
3124.66	724.98
3125.77	714.74
3126.88	772.08
3127.98	688.12
3129.09	696.31
3130.20	649.21
3131.30	686.07
3132.41	577.53
3133.51	770.04
3134.61	630.77
3135.72	770.04
3136.82	851.95
3137.93	641.01
3139.03	729.08
3140.13	698.36
3141.23	733.17
3142.33	698.36
3143.44	702.45
3144.54	608.25
3145.64	645.11
3146.74	694.26
3147.84	677.88
3148.94	718.84
3150.04	522.23
3151.14	657.40
3152.23	704.50
3153.33	673.78
3154.43	659.45
3155.53	473.08
3156.63	651.25
3157.72	806.90
3158.82	657.40
3159.91	808.95
3161.01	620.53
3162.11	708.60
3163.20	571.38
3164.30	534.52
3165.39	516.09
3166.48	708.60
3167.58	692.21
3168.67	593.91
3169.76	567.29
3170.86	712.69
3171.95	534.52
3173.04	532.47
3174.13	737.27
3175.22	665.59
3176.31	530.42
3177.40	673.78
3178.49	747.51
3179.58	606.20
3180.67	622.58
3181.76	485.37
3182.85	598.01
3183.94	602.10
3185.03	514.04
3186.11	671.73
3187.20	602.10
3188.29	712.69
3189.37	585.72
3190.46	477.18
3191.55	511.99
3192.63	589.81
3193.72	583.67
3194.80	665.59
3195.89	563.19
3196.97	585.72
3198.05	632.82
3199.14	602.10
3200.22	604.15
3201.30	485.37
3202.38	565.24
3203.47	546.81
3204.55	610.29
3205.63	536.57
3206.71	616.44
3207.79	634.87
3208.87	677.88
3209.95	632.82
3211.03	548.86
3212.11	614.39
3213.19	587.77
3214.27	585.72
3215.34	555.00
3216.42	636.92
3217.50	600.05
3218.58	358.39
3219.65	581.62
3220.73	561.14
3221.80	501.75
3222.88	497.66
3223.96	518.14
3225.03	544.76
3226.10	616.44
3227.18	593.91
3228.25	645.11
3229.33	561.14
3230.40	520.18
3231.47	622.58
3232.54	450.55
3233.62	526.33
3234.69	567.29
3235.76	528.38
3236.83	557.05
3237.90	581.62
3238.97	534.52
3240.04	522.23
3241.11	559.10
3242.18	610.29
3243.25	606.20
3244.32	542.71
3245.39	749.56
3246.45	569.34
3247.52	464.89
3248.59	546.81
3249.66	614.39
3250.72	651.25
3251.79	659.45
3252.85	573.43
3253.92	507.90
3254.98	561.14
3256.05	555.00
3257.11	520.18
3258.18	450.55
3259.24	526.33
3260.30	563.19
3261.37	626.68
3262.43	589.81
3263.49	550.90
3264.55	557.05
3265.62	641.01
3266.68	460.79
3267.74	544.76
3268.80	559.10
3269.86	530.42
3270.92	546.81
3271.98	632.82
3273.04	466.94
3274.10	565.24
3275.16	583.67
3276.21	583.67
3277.27	432.12
3278.33	555.00
3279.39	505.85
3280.44	569.34
3281.50	538.62
3282.56	620.53
3283.61	565.24
3284.67	608.25
3285.72	487.42
3286.78	550.90
3287.83	524.28
3288.88	503.80
3289.94	604.15
3290.99	587.77
3292.04	557.05
3293.10	544.76
3294.15	522.23
3295.20	546.81
3296.25	522.23
3297.30	628.73
3298.36	468.98
3299.41	555.00
3300.46	473.08
3301.51	565.24
3302.56	579.58
3303.61	645.11
3304.65	509.94
3305.70	423.93
3306.75	630.77
3307.80	458.75
3308.85	479.22
3309.89	507.90
3310.94	544.76
3311.99	432.12
3313.03	530.42
3314.08	520.18
3315.12	491.51
3316.17	614.39
3317.21	632.82
3318.26	557.05
3319.30	569.34
3320.35	528.38
3321.39	565.24
3322.43	628.73
3323.48	501.75
3324.52	604.15
3325.56	462.84
3326.60	524.28
3327.64	546.81
3328.68	573.43
3329.73	511.99
3330.77	483.32
3331.81	458.74
3332.85	514.04
3333.88	434.17
3334.92	589.82
3335.96	552.95
3337.00	557.05
3338.04	391.16
3339.08	518.14
3340.11	493.56
3341.15	534.52
3342.19	419.83
3343.22	471.03
3344.26	458.75
3345.30	409.59
3346.33	497.66
3347.37	507.90
3348.40	618.49
3349.43	563.19
3350.47	501.75
3351.50	585.72
3352.54	526.33
3353.57	499.70
3354.60	511.99
3355.63	602.10
3356.67	544.76
3357.70	452.60
3358.73	511.99
3359.76	712.69
3360.79	516.09
3361.82	608.25
3362.85	665.59
3363.88	511.99
3364.91	503.80
3365.94	509.94
3366.97	450.55
3367.99	493.56
3369.02	569.34
3370.05	622.58
3371.08	450.55
3372.10	540.66
3373.13	372.73
3374.16	511.99
3375.18	444.41
3376.21	534.52
3377.23	413.69
3378.26	405.50
3379.28	466.94
3380.31	509.94
3381.33	473.08
3382.35	528.38
3383.38	641.01
3384.40	606.20
3385.42	366.59
3386.45	483.32
3387.47	475.13
3388.49	595.96
3389.51	524.28
3390.53	491.51
3391.55	507.90
3392.57	475.13
3393.59	692.21
3394.61	509.94
3395.63	440.31
3396.65	479.22
3397.67	481.27
3398.69	466.94
3399.70	468.98
3400.72	448.51
3401.74	595.96
3402.76	602.10
3403.77	511.99
3404.79	454.65
3405.80	407.55
3406.82	546.81
3407.83	563.19
3408.85	399.35
3409.86	473.08
3410.88	641.01
3411.89	481.27
3412.91	571.38
3413.92	530.42
3414.93	610.29
3415.94	622.58
3416.96	602.10
3417.97	509.94
3418.98	600.05
3419.99	600.05
3421.00	530.42
3422.01	483.32
3423.02	374.78
3424.03	389.11
3425.04	444.41
3426.05	479.22
3427.06	520.18
3428.07	559.10
3429.08	495.61
3430.09	497.66
3431.09	552.95
3432.10	575.48
3433.11	495.61
3434.12	583.67
3435.12	628.73
3436.13	456.70
3437.13	591.86
3438.14	516.09
3439.14	485.37
3440.15	385.02
3441.15	514.04
3442.16	477.18
3443.16	436.22
3444.16	485.37
3445.17	634.87
3446.17	460.79
3447.17	532.47
3448.17	548.86
3449.18	585.72
3450.18	417.79
3451.18	405.50
3452.18	528.38
3453.18	466.94
3454.18	450.55
3455.18	573.43
3456.18	509.94
3457.18	372.73
3458.18	548.86
3459.17	473.08
3460.17	450.55
3461.17	610.29
3462.17	532.47
3463.17	462.84
3464.16	477.18
3465.16	604.15
3466.15	434.17
3467.15	423.93
3468.15	409.59
3469.14	485.37
3470.14	454.65
3471.13	632.82
3472.13	514.04
3473.12	419.83
3474.11	532.47
3475.11	430.07
3476.10	458.74
3477.09	475.13
3478.08	524.28
3479.08	534.52
3480.07	561.14
3481.06	522.23
3482.05	567.29
3483.04	620.53
3484.03	401.40
3485.02	516.09
3486.01	542.71
3487.00	511.99
3487.99	595.96
3488.98	489.46
3489.97	702.45
3490.95	364.54
3491.94	356.35
3492.93	538.62
3493.92	401.40
3494.90	493.56
3495.89	495.61
3496.88	415.74
3497.86	575.48
3498.85	479.22
3499.83	428.03
3500.82	503.80
3501.80	583.67
3502.79	557.05
3503.77	395.26
3504.75	438.27
3505.74	352.25
3506.72	577.53
3507.70	538.62
3508.68	430.07
3509.67	454.65
3510.65	294.91
3511.63	477.18
3512.61	497.66
3513.59	509.94
3514.57	507.90
3515.55	491.51
3516.53	440.31
3517.51	493.56
3518.49	552.95
3519.47	571.38
3520.45	530.42
3521.42	462.84
3522.40	493.56
3523.38	462.84
3524.36	393.21
3525.33	389.11
3526.31	516.09
3527.29	372.73
3528.26	450.55
3529.24	518.14
3530.21	645.11
3531.19	421.88
3532.16	473.08
3533.14	468.98
3534.11	579.58
3535.08	352.25
3536.06	497.66
3537.03	428.03
3538.00	438.27
3538.98	493.56
3539.95	430.07
3540.92	446.46
3541.89	542.71
3542.86	348.15
3543.83	454.65
3544.80	520.18
3545.77	479.22
3546.74	434.17
3547.71	434.17
3548.68	460.79
3549.65	608.25
3550.62	466.94
3551.59	440.31
3552.56	477.18
3553.52	419.83
3554.49	444.41
3555.46	514.04
3556.42	466.94
3557.39	612.34
3558.36	532.47
3559.32	477.18
3560.29	481.27
3561.25	511.99
3562.22	475.13
3563.18	495.61
3564.15	475.13
3565.11	501.75
3566.07	370.68
3567.04	428.03
3568.00	444.41
3568.96	315.39
3569.92	331.77
3570.89	536.57
3571.85	511.99
3572.81	329.72
3573.77	440.31
3574.73	382.97
3575.69	530.42
3576.65	319.48
3577.61	333.82
3578.57	407.55
3579.53	419.83
3580.49	362.49
3581.45	399.35
3582.40	511.99
3583.36	444.41
3584.32	509.94
3585.28	382.97
3586.23	423.93
3587.19	583.67
3588.15	417.79
3589.10	436.22
3590.06	374.78
3591.01	430.07
3591.97	534.52
3592.92	419.83
3593.88	493.56
3594.83	421.88
3595.78	413.69
3596.74	417.79
3597.69	409.59
3598.64	411.64
3599.60	311.29
3600.55	448.51
3601.50	421.88
3602.45	393.21
3603.40	499.70
3604.35	380.92
3605.31	516.09
3606.26	413.69
3607.21	555.00
3608.16	468.98
3609.10	452.60
3610.05	456.70
3611.00	354.30
3611.95	468.98
3612.90	366.59
3613.85	526.33
3614.79	518.14
3615.74	405.50
3616.69	331.77
3617.63	511.99
3618.58	507.90
3619.53	526.33
3620.47	509.94
3621.42	411.64
3622.36	442.36
3623.31	387.07
3624.25	436.22
3625.20	391.16
3626.14	387.07
3627.08	397.31
3628.03	473.08
3628.97	337.91
3629.91	505.85
3630.85	415.74
3631.80	460.79
3632.74	487.42
3633.68	468.98
3634.62	407.55
3635.56	399.35
3636.50	360.44
3637.44	399.35
3638.38	421.88
3639.32	423.93
3640.26	534.52
3641.20	475.13
3642.14	479.22
3643.08	509.94
3644.01	610.29
3644.95	460.79
3645.89	421.88
3646.83	407.55
3647.76	514.04
3648.70	471.03
3649.63	536.57
3650.57	376.83
3651.51	479.22
3652.44	395.26
3653.38	481.27
3654.31	342.01
3655.24	477.18
3656.18	401.40
3657.11	491.51
3658.05	446.46
3658.98	425.98
3659.91	393.21
3660.84	413.69
3661.78	385.02
3662.71	417.79
3663.64	352.25
3664.57	499.70
3665.50	423.93
3666.43	501.75
3667.36	473.08
3668.29	411.64
3669.22	370.68
3670.15	409.59
3671.08	358.39
3672.01	288.76
3672.94	532.47
3673.86	493.56
3674.79	372.73
3675.72	550.90
3676.65	446.46
3677.57	503.80
3678.50	444.41
3679.43	442.36
3680.35	239.61
3681.28	415.74
3682.20	344.06
3683.13	452.60
3684.05	479.22
3684.98	272.38
3685.90	415.74
3686.83	387.07
3687.75	399.35
3688.67	370.68
3689.60	485.37
3690.52	450.55
3691.44	448.51
3692.36	286.72
3693.28	272.38
3694.21	313.34
3695.13	434.17
3696.05	434.17
3696.97	442.36
3697.89	411.64
3698.81	489.46
3699.73	368.63
3700.65	348.15
3701.57	366.59
3702.48	516.09
3703.40	423.93
3704.32	428.03
3705.24	530.42
3706.16	430.07
3707.07	409.59
3707.99	516.09
3708.91	425.98
3709.82	471.03
3710.74	372.73
3711.66	374.78
3712.57	503.80
3713.49	501.75
3714.40	475.13
3715.31	460.79
3716.23	389.11
3717.14	454.65
3718.06	333.82
3718.97	313.34
3719.88	385.02
3720.80	448.51
3721.71	-559.10
3722.62	655.35
3723.53	428.03
3724.44	389.11
3725.35	446.46
3726.26	413.69
3727.18	346.11
3728.09	360.44
3729.00	542.71
3729.91	489.46
3730.81	438.27
3731.72	468.98
3732.63	393.21
3733.54	405.50
3734.45	335.87
3735.36	323.58
3736.26	421.88
3737.17	376.83
3738.08	536.57
3738.99	497.66
3739.89	456.70
3740.80	468.98
3741.70	466.94
3742.61	393.21
3743.51	487.42
3744.42	413.69
3745.32	485.37
3746.23	468.98
3747.13	282.62
3748.04	518.14
3748.94	382.97
3749.84	403.45
3750.74	454.65
3751.65	337.91
3752.55	501.75
3753.45	413.69
3754.35	436.22
3755.25	475.13
3756.16	301.05
3757.06	288.76
3757.96	479.22
3758.86	417.79
3759.76	354.30
3760.66	475.13
3761.55	421.88
3762.45	409.59
3763.35	385.02
3764.25	428.03
3765.15	425.98
3766.05	454.65
3766.94	299.00
3767.84	393.21
3768.74	419.83
3769.63	350.20
3770.53	385.02
3771.43	397.31
3772.32	346.11
3773.22	333.82
3774.11	550.90
3775.01	354.30
3775.90	368.63
3776.80	366.59
3777.69	350.20
3778.58	528.38
3779.48	301.05
3780.37	440.31
3781.26	358.39
3782.16	440.31
3783.05	327.67
3783.94	329.72
3784.83	436.22
3785.72	315.39
3786.61	495.61
3787.50	450.55
3788.39	458.74
3789.28	339.96
3790.17	370.68
3791.06	303.10
3791.95	325.63
3792.84	223.23
3793.73	468.98
3794.62	344.06
3795.51	382.97
3796.39	368.63
3797.28	391.16
3798.17	411.64
3799.06	327.67
3799.94	389.11
3800.83	376.83
3801.71	479.22
3802.60	448.51
3803.48	362.49
3804.37	260.09
3805.25	385.02
3806.14	464.89
3807.02	425.98
3807.91	288.76
3808.79	458.74
3809.67	552.95
3810.56	395.26
3811.44	411.64
3812.32	421.88
3813.20	372.73
3814.09	378.87
3814.97	301.05
3815.85	366.59
3816.73	526.33
3817.61	458.74
3818.49	436.22
3819.37	282.62
3820.25	436.22
3821.13	294.91
3822.01	436.22
3822.89	423.93
3823.77	436.22
3824.65	393.21
3825.52	370.68
3826.40	432.12
3827.28	227.32
3828.16	366.59
3829.03	256.00
3829.91	387.07
3830.79	331.77
3831.66	368.63
3832.54	364.54
3833.41	579.58
3834.29	411.64
3835.16	403.45
3836.04	409.59
3836.91	425.98
3837.79	436.22
3838.66	376.83
3839.53	329.72
3840.41	401.40
3841.28	339.96
3842.15	301.05
3843.02	464.89
3843.90	294.91
3844.77	264.19
3845.64	321.53
3846.51	405.50
3847.38	436.22
3848.25	415.74
3849.12	446.46
3849.99	374.78
3850.86	325.63
3851.73	311.29
3852.60	442.36
3853.47	425.98
3854.34	344.06
3855.21	307.20
3856.07	540.66
3856.94	380.92
3857.81	468.98
3858.68	409.59
3859.54	423.93
3860.41	421.88
3861.28	483.32
3862.14	446.46
3863.01	397.31
3863.87	331.77
3864.74	450.55
3865.60	395.26
3866.47	385.02
3867.33	335.87
3868.19	346.11
3869.06	315.39
3869.92	323.58
3870.78	301.05
3871.65	317.44
3872.51	315.39
3873.37	393.21
3874.23	481.27
3875.10	247.80
3875.96	489.46
3876.82	407.55
3877.68	528.38
3878.54	223.23
3879.40	385.02
3880.26	284.67
3881.12	364.54
3881.98	323.58
3882.84	319.48
3883.70	243.71
3884.55	299.00
3885.41	348.15
3886.27	423.93
3887.13	393.21
3887.99	313.34
3888.84	303.10
3889.70	317.44
3890.56	378.87
3891.41	376.83
3892.27	235.52
3893.12	366.59
3893.98	466.94
3894.83	368.63
3895.69	278.52
3896.54	356.35
3897.40	403.45
3898.25	325.63
3899.11	364.54
3899.96	278.52
3900.81	352.25
3901.66	407.55
3902.52	299.00
3903.37	292.86
3904.22	462.84
3905.07	423.93
3905.92	309.24
3906.78	421.88
3907.63	368.63
