raman   n   
-2184.52	-98.30
-2181.51	-98.30
-2178.50	-98.30
-2175.49	-6.14
-2172.49	69.63
-2169.48	45.06
-2166.48	-73.73
-2163.48	-34.82
-2160.47	96.25
-2157.47	92.16
-2154.47	-8.19
-2151.48	-131.07
-2148.48	145.41
-2145.49	-73.73
-2142.49	34.82
-2139.50	-28.67
-2136.51	-43.01
-2133.52	-36.86
-2130.53	397.31
-2127.54	548.86
-2124.55	665.59
-2121.57	595.96
-2118.58	571.38
-2115.60	643.06
-2112.62	765.94
-2109.64	520.18
-2106.66	612.34
-2103.68	602.10
-2100.70	602.10
-2097.73	759.80
-2094.75	638.97
-2091.78	620.53
-2088.81	565.24
-2085.83	618.49
-2082.86	643.06
-2079.90	688.12
-2076.93	612.34
-2073.96	712.69
-2071.00	671.73
-2068.03	655.35
-2065.07	718.84
-2062.11	731.12
-2059.15	624.63
-2056.19	692.21
-2053.23	600.05
-2050.27	655.35
-2047.32	604.15
-2044.36	540.66
-2041.41	557.05
-2038.46	661.49
-2035.51	546.81
-2032.56	829.43
-2029.61	604.15
-2026.66	567.29
-2023.72	636.92
-2020.77	708.60
-2017.83	649.21
-2014.88	661.49
-2011.94	606.20
-2009.00	706.55
-2006.06	503.80
-2003.13	782.32
-2000.19	622.58
-1997.25	593.91
-1994.32	528.38
-1991.39	649.21
-1988.45	743.41
-1985.52	661.49
-1982.59	538.62
-1979.67	665.59
-1976.74	573.43
-1973.81	837.62
-1970.89	833.52
-1967.96	681.97
-1965.04	649.21
-1962.12	620.53
-1959.20	575.48
-1956.28	647.16
-1953.36	628.73
-1950.45	534.52
-1947.53	548.86
-1944.62	573.43
-1941.70	503.80
-1938.79	538.62
-1935.88	602.10
-1932.97	573.43
-1930.06	649.21
-1927.15	514.04
-1924.25	573.43
-1921.34	573.43
-1918.44	718.84
-1915.54	638.97
-1912.63	651.25
-1909.73	585.72
-1906.83	516.09
-1903.94	729.08
-1901.04	487.42
-1898.14	716.79
-1895.25	604.15
-1892.36	714.74
-1889.46	653.30
-1886.57	761.84
-1883.68	487.42
-1880.79	692.21
-1877.91	641.01
-1875.02	493.56
-1872.13	794.61
-1869.25	659.45
-1866.37	763.89
-1863.48	692.21
-1860.60	694.26
-1857.72	708.60
-1854.84	665.59
-1851.97	550.90
-1849.09	681.97
-1846.22	585.72
-1843.34	620.53
-1840.47	610.29
-1837.60	569.34
-1834.73	731.12
-1831.86	610.29
-1828.99	681.97
-1826.12	612.34
-1823.26	579.58
-1820.39	774.13
-1817.53	649.21
-1814.67	708.60
-1811.80	598.01
-1808.94	526.33
-1806.08	835.57
-1803.23	610.29
-1800.37	600.05
-1797.51	557.05
-1794.66	583.67
-1791.81	516.09
-1788.95	524.28
-1786.10	561.14
-1783.25	602.10
-1780.40	540.66
-1777.56	667.64
-1774.71	624.63
-1771.86	557.05
-1769.02	403.45
-1766.18	579.58
-1763.33	638.97
-1760.49	626.68
-1757.65	718.84
-1754.81	604.15
-1751.98	581.62
-1749.14	636.92
-1746.30	696.31
-1743.47	696.31
-1740.64	839.67
-1737.81	565.24
-1734.97	663.54
-1732.14	679.93
-1729.32	643.06
-1726.49	583.67
-1723.66	628.73
-1720.84	620.53
-1718.01	681.97
-1715.19	657.40
-1712.37	557.05
-1709.55	688.12
-1706.73	579.58
-1703.91	708.60
-1701.09	587.77
-1698.27	608.25
-1695.46	679.93
-1692.65	759.80
-1689.83	659.45
-1687.02	626.68
-1684.21	569.34
-1681.40	708.60
-1678.59	704.50
-1675.78	548.86
-1672.98	679.93
-1670.17	718.84
-1667.37	835.57
-1664.56	765.94
-1661.76	714.74
-1658.96	696.31
-1656.16	727.03
-1653.36	772.08
-1650.57	684.02
-1647.77	634.87
-1644.97	460.79
-1642.18	534.52
-1639.39	604.15
-1636.60	641.01
-1633.80	548.86
-1631.01	681.97
-1628.23	669.69
-1625.44	569.34
-1622.65	759.80
-1619.87	729.08
-1617.08	598.01
-1614.30	833.52
-1611.52	598.01
-1608.74	608.25
-1605.96	659.45
-1603.18	757.75
-1600.40	708.60
-1597.62	651.25
-1594.85	712.69
-1592.07	643.06
-1589.30	677.88
-1586.53	767.99
-1583.76	622.58
-1580.99	659.45
-1578.22	579.58
-1575.45	663.54
-1572.68	698.36
-1569.92	511.99
-1567.15	550.90
-1564.39	622.58
-1561.63	767.99
-1558.86	727.03
-1556.10	600.05
-1553.34	669.69
-1550.59	493.56
-1547.83	657.40
-1545.07	727.03
-1542.32	788.47
-1539.56	718.84
-1536.81	653.30
-1534.06	581.62
-1531.31	681.97
-1528.56	643.06
-1525.81	602.10
-1523.06	772.08
-1520.32	653.30
-1517.57	516.09
-1514.83	720.89
-1512.09	794.61
-1509.34	790.52
-1506.60	538.62
-1503.86	692.21
-1501.12	628.73
-1498.39	686.07
-1495.65	581.62
-1492.91	792.56
-1490.18	614.39
-1487.45	663.54
-1484.71	593.91
-1481.98	630.77
-1479.25	464.89
-1476.52	665.59
-1473.80	550.90
-1471.07	745.46
-1468.34	739.32
-1465.62	673.78
-1462.89	727.03
-1460.17	788.47
-1457.45	559.10
-1454.73	724.98
-1452.01	839.67
-1449.29	708.60
-1446.57	665.59
-1443.86	735.22
-1441.14	888.82
-1438.43	765.94
-1435.71	595.96
-1433.00	694.26
-1430.29	724.98
-1427.58	540.66
-1424.87	458.74
-1422.16	671.73
-1419.46	569.34
-1416.75	585.72
-1414.05	761.84
-1411.34	776.18
-1408.64	747.51
-1405.94	856.05
-1403.24	708.60
-1400.54	630.77
-1397.84	-894.96
-1395.14	767.99
-1392.45	751.60
-1389.75	741.36
-1387.06	745.46
-1384.36	716.79
-1381.67	622.58
-1378.98	714.74
-1376.29	737.27
-1373.60	755.70
-1370.91	704.50
-1368.23	827.38
-1365.54	827.38
-1362.86	722.93
-1360.17	802.80
-1357.49	559.10
-1354.81	872.43
-1352.13	802.80
-1349.45	708.60
-1346.77	796.66
-1344.09	825.33
-1341.42	755.70
-1338.74	856.05
-1336.07	784.37
-1333.39	782.32
-1330.72	675.83
-1328.05	663.54
-1325.38	743.41
-1322.71	802.80
-1320.04	720.89
-1317.37	620.53
-1314.71	655.35
-1312.04	632.82
-1309.38	833.52
-1306.72	839.67
-1304.05	718.84
-1301.39	636.92
-1298.73	634.87
-1296.08	692.21
-1293.42	561.14
-1290.76	579.58
-1288.10	765.94
-1285.45	688.12
-1282.80	661.49
-1280.14	841.72
-1277.49	653.30
-1274.84	690.17
-1272.19	690.17
-1269.54	800.76
-1266.90	837.62
-1264.25	815.09
-1261.60	751.60
-1258.96	829.43
-1256.32	808.95
-1253.67	770.04
-1251.03	786.42
-1248.39	841.72
-1245.75	833.52
-1243.11	788.47
-1240.48	759.80
-1237.84	798.71
-1235.20	751.60
-1232.57	813.04
-1229.94	649.21
-1227.31	651.25
-1224.67	718.84
-1222.04	710.65
-1219.41	727.03
-1216.79	839.67
-1214.16	708.60
-1211.53	604.15
-1208.91	759.80
-1206.28	749.56
-1203.66	800.76
-1201.04	792.56
-1198.42	731.12
-1195.80	602.10
-1193.18	800.76
-1190.56	753.65
-1187.94	811.00
-1185.33	835.57
-1182.71	880.63
-1180.10	776.18
-1177.49	690.17
-1174.87	831.48
-1172.26	784.37
-1169.65	792.56
-1167.04	751.60
-1164.44	802.80
-1161.83	659.45
-1159.22	661.49
-1156.62	800.76
-1154.01	839.67
-1151.41	978.93
-1148.81	765.94
-1146.21	843.76
-1143.61	755.70
-1141.01	774.13
-1138.41	755.70
-1135.81	845.81
-1133.22	751.60
-1130.62	716.79
-1128.03	823.28
-1125.44	849.91
-1122.84	784.37
-1120.25	774.13
-1117.66	874.48
-1115.07	767.99
-1112.49	854.00
-1109.90	806.90
-1107.31	835.57
-1104.73	950.26
-1102.14	888.82
-1099.56	808.95
-1096.98	651.25
-1094.40	784.37
-1091.82	733.17
-1089.24	911.35
-1086.66	866.29
-1084.08	798.71
-1081.51	944.11
-1078.93	856.05
-1076.36	839.67
-1073.79	933.87
-1071.21	860.15
-1068.64	911.35
-1066.07	784.37
-1063.50	821.24
-1060.93	858.10
-1058.37	940.02
-1055.80	1003.50
-1053.24	899.06
-1050.67	946.16
-1048.11	958.45
-1045.55	923.63
-1042.99	903.15
-1040.42	950.26
-1037.87	1048.56
-1035.31	858.10
-1032.75	907.25
-1030.19	933.87
-1027.64	962.55
-1025.08	1009.65
-1022.53	1155.05
-1019.98	833.52
-1017.43	849.91
-1014.88	827.38
-1012.33	897.01
-1009.78	1069.04
-1007.23	1009.65
-1004.68	909.30
-1002.14	868.34
-999.59	931.83
-997.05	1030.13
-994.51	1005.55
-991.96	952.31
-989.42	1153.01
-986.88	886.77
-984.34	860.15
-981.81	976.88
-979.27	870.39
-976.73	948.21
-974.20	894.96
-971.66	1048.56
-969.13	1081.33
-966.60	1017.84
-964.07	1048.56
-961.54	940.02
-959.01	972.79
-956.48	1005.55
-953.95	1058.80
-951.43	1009.65
-948.90	1114.10
-946.38	1116.14
-943.85	1007.60
-941.33	1030.13
-938.81	1038.32
-936.29	1171.44
-933.77	1200.11
-931.25	1181.68
-928.73	837.62
-926.22	1173.49
-923.70	1101.81
-921.19	1062.90
-918.67	1239.02
-916.16	1044.46
-913.65	970.74
-911.14	1218.54
-908.63	1198.06
-906.12	1193.97
-903.61	1318.89
-901.10	1093.62
-898.59	1030.13
-896.09	1062.90
-893.59	1081.33
-891.08	1169.39
-888.58	1128.43
-886.08	1128.43
-883.58	1165.29
-881.08	1208.30
-878.58	1177.58
-876.08	1228.78
-873.58	1130.48
-871.09	1140.72
-868.59	1193.97
-866.10	1306.60
-863.61	1077.23
-861.12	1085.42
-858.62	1302.51
-856.13	1165.29
-853.64	1339.37
-851.16	1257.45
-848.67	1210.35
-846.18	1263.60
-843.70	1134.57
-841.21	1189.87
-838.73	1257.45
-836.25	1292.27
-833.77	1153.01
-831.28	1413.10
-828.81	1243.12
-826.33	1390.57
-823.85	1355.76
-821.37	1366.00
-818.90	1335.28
-816.42	1337.32
-813.95	1187.82
-811.47	1310.70
-809.00	999.41
-806.53	1484.78
-804.06	1343.47
-801.59	1439.72
-799.12	1419.24
-796.65	1333.23
-794.19	1335.28
-791.72	1386.47
-789.26	1361.90
-786.79	1468.39
-784.33	1636.33
-781.87	1460.20
-779.41	1538.02
-776.95	1497.07
-774.49	1341.42
-772.03	1531.88
-769.57	1533.93
-767.12	1523.69
-764.66	1615.85
-762.21	1531.88
-759.75	1402.86
-757.30	1523.69
-754.85	1601.51
-752.40	1671.14
-749.95	1679.33
-747.50	1685.48
-745.05	1544.17
-742.60	1812.45
-740.16	1712.10
-737.71	1683.43
-735.27	1789.92
-732.82	1773.54
-730.38	1638.38
-727.94	1816.55
-725.50	1859.56
-723.06	1722.34
-720.62	1822.69
-718.18	1908.71
-715.74	1810.40
-713.31	1851.36
-710.87	1841.12
-708.44	1851.36
-706.01	1619.94
-703.57	1898.47
-701.14	1916.90
-698.71	1781.73
-696.28	1714.15
-693.85	1810.40
-691.42	1800.16
-689.00	1908.71
-686.57	1736.68
-684.15	1810.40
-681.72	1712.10
-679.30	1828.84
-676.88	1710.05
-674.45	1871.84
-672.03	1894.37
-669.61	1951.71
-667.20	2002.91
-664.78	1920.99
-662.36	2041.82
-659.94	2185.18
-657.53	2023.39
-655.12	1888.23
-652.70	2129.89
-650.29	2056.16
-647.88	1994.72
-645.47	2093.02
-643.06	2211.81
-640.65	1914.85
-638.24	2015.20
-635.83	2189.28
-633.43	2086.88
-631.02	2119.65
-628.62	2052.06
-626.22	2035.68
-623.81	2152.42
-621.41	2138.08
-619.01	2242.53
-616.61	2385.88
-614.21	2031.59
-611.81	2271.20
-609.42	2250.72
-607.02	2416.60
-604.63	2271.20
-602.23	2164.70
-599.84	2174.94
-597.45	2281.44
-595.05	2291.68
-592.66	2328.54
-590.27	2459.61
-587.88	2392.03
-585.50	2283.49
-583.11	2357.21
-580.72	2387.93
-578.34	2420.70
-575.95	2324.44
-573.57	2478.04
-571.19	2379.74
-568.80	2238.43
-566.42	2396.12
-564.04	2553.82
-561.66	2475.99
-559.29	2455.51
-556.91	2705.37
-554.53	2480.09
-552.16	2688.98
-549.78	2688.98
-547.41	2400.22
-545.03	2627.54
-542.66	2635.74
-540.29	2295.77
-537.92	2654.17
-535.55	2525.15
-533.18	2586.58
-530.81	2582.49
-528.45	2547.67
-526.08	2836.44
-523.72	2494.43
-521.35	2781.14
-518.99	2738.13
-516.63	2680.79
-514.27	2740.18
-511.90	2621.40
-509.54	2944.98
-507.19	2742.23
-504.83	2723.80
-502.47	2906.07
-500.11	2897.88
-497.76	3225.55
-495.40	2822.10
-493.05	2953.17
-490.70	2815.96
-488.35	2920.40
-486.00	3006.42
-483.65	3108.82
-481.30	2969.55
-478.95	3178.45
-476.60	2809.81
-474.25	3153.87
-471.91	2861.01
-469.56	2750.42
-467.22	2818.00
-464.88	3112.91
-462.53	2912.21
-460.19	2949.08
-457.85	2861.01
-455.51	2815.96
-453.17	2742.23
-450.84	2809.81
-448.50	2779.09
-446.16	2705.37
-443.83	2488.28
-441.49	2492.38
-439.16	2578.39
-436.83	2340.83
-434.50	2248.67
-432.16	2144.22
-429.83	2232.29
-427.50	2078.69
-425.18	1757.16
-422.85	1904.61
-420.52	1699.81
-418.20	1562.60
-415.87	1458.15
-413.55	1562.60
-411.22	1267.69
-408.90	1392.62
-406.58	1142.77
-404.26	985.07
-401.94	911.35
-399.62	927.73
-397.30	827.38
-394.99	841.72
-392.67	858.10
-390.35	849.91
-388.04	653.30
-385.73	538.62
-383.41	569.34
-381.10	636.92
-378.79	522.23
-376.48	563.19
-374.17	647.16
-371.86	497.66
-369.55	638.97
-367.25	694.26
-364.94	692.21
-362.64	620.53
-360.33	534.52
-358.03	350.20
-355.73	745.46
-353.42	524.28
-351.12	542.71
-348.82	626.68
-346.52	518.14
-344.23	542.71
-341.93	550.90
-339.63	587.77
-337.34	421.88
-335.04	509.94
-332.75	559.10
-330.45	630.77
-328.16	655.35
-325.87	610.29
-323.58	495.61
-321.29	710.65
-319.00	598.01
-316.71	552.95
-314.42	638.97
-312.14	589.82
-309.85	499.70
-307.57	385.02
-305.28	575.48
-303.00	514.04
-300.72	505.85
-298.44	557.05
-296.16	571.38
-293.88	571.38
-291.60	587.77
-289.32	509.94
-287.04	655.35
-284.77	634.87
-282.49	563.19
-280.22	542.71
-277.94	712.69
-275.67	579.58
-273.40	747.51
-271.13	493.56
-268.85	485.37
-266.59	604.15
-264.32	567.29
-262.05	585.72
-259.78	606.20
-257.51	466.94
-255.25	579.58
-252.98	483.32
-250.72	604.15
-248.46	524.28
-246.20	536.57
-243.93	663.54
-241.67	684.02
-239.41	501.75
-237.16	767.99
-234.90	444.41
-232.64	491.51
-230.38	499.70
-228.13	438.27
-225.87	501.75
-223.62	542.71
-221.37	616.44
-219.11	649.21
-216.86	485.37
-214.61	501.75
-212.36	557.05
-210.11	526.33
-207.87	628.73
-205.62	563.19
-203.37	657.40
-201.13	536.57
-198.88	628.73
-196.64	483.32
-194.39	573.43
-192.15	593.91
-189.91	567.29
-187.67	569.34
-185.43	630.77
-183.19	587.77
-180.95	641.01
-178.72	708.60
-176.48	493.56
-174.24	686.07
-172.01	559.10
-169.77	548.86
-167.54	577.53
-165.31	487.42
-163.08	475.13
-160.85	614.39
-158.62	684.02
-156.39	442.36
-154.16	540.66
-151.93	544.76
-149.70	628.73
-147.48	356.35
-145.25	436.22
-143.03	628.73
-140.81	643.06
-138.58	522.23
-136.36	477.18
-134.14	425.98
-131.92	628.73
-129.70	544.76
-127.48	536.57
-125.26	421.88
-123.05	649.21
-120.83	536.57
-118.62	528.38
-116.40	454.65
-114.19	505.85
-111.97	698.36
-109.76	645.11
-107.55	452.60
-105.34	520.18
-103.13	434.17
-100.92	563.19
-98.71	636.92
-96.51	714.74
-94.30	657.40
-92.09	610.29
-89.89	563.19
-87.69	638.97
-85.48	442.36
-83.28	509.94
-81.08	581.62
-78.88	524.28
-76.68	483.32
-74.48	636.92
-72.28	522.23
-70.08	638.97
-67.88	518.14
-65.69	425.98
-63.49	466.94
-61.30	598.01
-59.11	516.09
-56.91	501.75
-54.72	516.09
-52.53	540.66
-50.34	595.96
-48.15	628.73
-45.96	563.19
-43.77	634.87
-41.59	526.33
-39.40	585.72
-37.21	454.65
-35.03	544.76
-32.84	503.80
-30.66	552.95
-28.48	511.99
-26.30	624.63
-24.12	573.43
-21.94	542.71
-19.76	557.05
-17.58	800.76
-15.40	1155.05
-13.22	1353.71
-11.05	1939.43
-8.87	2232.29
-6.70	2387.93
-4.52	2688.98
-2.35	2678.74
-0.18	2535.39
1.99	2684.89
4.16	2584.54
6.33	2179.04
8.50	2000.87
10.67	1593.32
12.84	1583.08
15.00	1462.25
17.17	1322.99
19.33	1046.51
21.50	983.03
23.66	987.12
25.83	739.32
27.99	825.33
30.15	559.10
32.31	731.12
34.47	661.49
36.63	509.94
38.79	757.75
40.94	686.07
43.10	536.57
45.25	516.09
47.41	647.16
49.56	559.10
51.72	581.62
53.87	634.87
56.02	735.22
58.17	600.05
60.32	507.90
62.47	659.45
64.62	432.12
66.77	585.72
68.92	538.62
71.06	645.11
73.21	548.86
75.35	505.85
77.50	724.98
79.64	655.35
81.78	393.21
83.92	491.51
86.06	415.74
88.20	559.10
90.34	534.52
92.48	589.82
94.62	618.49
96.76	663.54
98.89	794.61
101.03	706.55
103.16	655.35
105.30	774.13
107.43	872.43
109.56	847.86
111.69	1003.50
113.82	1062.90
115.95	1030.13
118.08	1232.88
120.21	1153.01
122.34	1347.56
124.47	1421.29
126.59	1697.77
128.72	1734.63
130.84	1923.04
132.97	2224.09
135.09	2303.96
137.21	2559.96
139.33	2637.78
141.45	3076.05
143.57	3225.55
145.69	3542.99
147.81	3817.41
149.93	4386.75
152.05	4632.51
154.16	5052.34
156.28	5130.16
158.39	5746.60
160.51	5773.22
162.62	5998.50
164.73	6266.78
166.85	6272.93
168.96	6686.62
171.07	6991.77
173.18	7485.33
175.28	7452.56
177.39	7569.29
179.50	7769.99
181.61	8079.24
183.71	8660.86
185.82	8488.83
187.92	9054.07
190.02	9348.98
192.13	9262.96
194.23	9240.44
196.33	9828.20
198.43	9901.93
200.53	9959.27
202.63	9912.17
204.72	10454.88
206.82	10026.86
208.92	10639.20
211.01	10237.80
213.11	10551.14
215.20	10686.30
217.30	10952.54
219.39	10813.28
221.48	11269.97
223.57	10907.48
225.66	11255.64
227.75	11560.78
229.84	11507.54
231.93	11896.65
234.02	11814.73
236.10	12357.44
238.19	12576.58
240.28	13131.58
242.36	14462.76
244.44	15206.17
246.53	16539.40
248.61	17889.01
250.69	20115.15
252.77	21913.27
254.85	23559.83
256.93	24460.94
259.01	24761.99
261.09	25056.90
263.16	23928.47
265.24	23692.95
267.32	22470.31
269.39	21012.16
271.46	20516.55
273.54	18468.58
275.61	17665.78
277.68	16428.81
279.75	15521.56
281.82	14415.65
283.89	14389.03
285.96	13618.99
288.03	13344.56
290.10	13014.84
292.16	12887.87
294.23	12492.61
296.29	12797.76
298.36	12871.48
300.42	12347.20
302.49	12773.18
304.55	12349.25
306.61	12316.48
308.67	12248.90
310.73	12080.97
312.79	12214.09
314.85	12136.26
316.90	12359.49
318.96	12177.22
321.02	12277.57
323.07	12214.09
325.13	12457.79
327.18	12236.61
329.24	12304.20
331.29	12095.30
333.34	12400.45
335.39	12386.12
337.44	13029.18
339.49	12670.78
341.54	12666.69
343.59	12701.50
345.64	13319.99
347.68	13201.21
349.73	13713.20
351.77	13868.84
353.82	14221.10
355.86	15132.44
357.90	15443.73
359.95	15978.25
361.99	15419.16
364.03	15609.62
366.07	15671.06
368.11	15210.26
370.15	15496.98
372.19	14851.87
374.22	14481.19
376.26	14395.17
378.29	14214.95
380.33	14040.87
382.36	13760.30
384.40	13698.86
386.43	13797.17
388.46	13954.86
390.49	13397.81
392.52	13281.08
394.55	13233.97
396.58	13446.96
398.61	13545.27
400.64	13412.15
402.67	13051.70
404.69	13029.18
406.72	13367.09
408.74	13182.77
410.77	13297.46
412.79	13279.03
414.81	13338.42
416.84	13037.37
418.86	13291.32
420.88	13168.44
422.90	13473.59
424.92	13416.24
426.94	13285.17
428.95	13270.84
430.97	13401.91
432.99	13424.44
435.00	13385.52
437.02	13305.65
439.03	13682.48
441.04	13360.95
443.06	13440.82
445.07	13078.33
447.08	13412.15
449.09	13403.96
451.10	13594.42
453.11	13219.64
455.12	13895.47
457.13	13684.53
459.13	13586.22
461.14	13610.80
463.14	14083.88
465.15	13537.07
467.15	13764.40
469.16	13500.21
471.16	13819.69
473.16	13578.03
475.16	13539.12
477.16	13584.18
479.16	13797.17
481.16	13815.60
483.16	13662.00
485.16	13545.27
487.15	13942.57
489.15	14163.75
491.15	13518.64
493.14	13647.66
495.14	13707.05
497.13	13717.29
499.12	13893.42
501.11	13801.26
503.11	13807.41
505.10	13639.47
507.09	13641.52
509.07	14079.79
511.06	14098.22
513.05	13754.16
515.04	13874.99
517.02	13975.34
519.01	13997.87
521.00	13946.67
522.98	14135.08
524.96	14270.25
526.95	14067.50
528.93	14042.92
530.91	14618.40
532.89	14278.44
534.87	14303.01
536.85	14133.03
538.83	14444.32
540.81	14182.18
542.78	14618.40
544.76	14544.67
546.74	14681.89
548.71	14565.15
550.69	14223.14
552.66	14960.41
554.63	14255.91
556.60	14001.96
558.58	14538.53
560.55	14765.85
562.52	14778.14
564.49	14595.87
566.46	14917.40
568.42	14823.20
570.39	14309.16
572.36	14542.63
574.32	14800.67
576.29	14735.14
578.25	14794.53
580.22	14481.19
582.18	14657.31
584.14	14882.59
586.11	14581.54
588.07	14393.12
590.03	15013.66
591.99	14638.88
593.95	14788.38
595.90	14685.98
597.86	14941.98
599.82	14702.37
601.78	15175.45
603.73	15269.66
605.69	15093.53
607.64	15226.65
609.59	15036.19
611.55	14751.52
613.50	14720.80
615.45	14792.48
617.40	14800.67
619.35	15476.50
621.30	15175.45
623.25	15576.85
625.20	15712.02
627.15	15316.76
629.09	15759.12
631.04	15447.83
632.98	15709.97
634.93	15359.77
636.87	15413.01
638.82	15800.08
640.76	15746.83
642.70	15916.81
644.64	16267.02
646.58	16486.15
648.52	16572.16
650.46	16441.09
652.40	16166.67
654.34	16305.93
656.27	16078.60
658.21	15832.85
660.15	16103.18
662.08	15900.43
664.02	16035.60
665.95	15740.69
667.88	15769.36
669.82	15658.77
671.75	15865.61
673.68	15666.96
675.61	15841.04
677.54	15734.54
679.47	15673.10
681.40	15537.94
683.32	15736.59
685.25	15968.01
687.18	16025.36
689.10	15820.56
691.03	15986.44
692.95	16013.07
694.87	15882.00
696.80	16207.62
698.72	16252.68
700.64	16162.57
702.56	16338.69
704.48	16623.36
706.40	16867.07
708.32	16520.96
710.24	16586.50
712.16	17155.83
714.07	17082.11
715.99	17583.86
717.90	17471.22
719.82	18210.54
721.73	18124.52
723.65	18104.04
725.56	18962.14
727.47	19574.49
729.38	19879.63
731.29	19861.20
733.20	19826.39
735.11	20258.51
737.02	19623.64
738.93	19926.74
740.84	19701.46
742.74	20365.00
744.65	19982.03
746.55	19676.88
748.46	19001.05
750.36	18980.57
752.27	19263.19
754.17	18630.37
756.07	17909.49
757.97	17426.17
759.87	17551.09
761.77	17477.37
763.67	17567.48
765.57	17299.19
767.47	17026.81
769.37	17202.94
771.26	17147.64
773.16	16779.01
775.06	16781.06
776.95	17022.72
778.84	16973.57
780.74	17012.48
782.63	16510.72
784.52	16551.68
786.41	16994.04
788.30	17096.44
790.19	16529.16
792.08	16738.05
793.97	16774.91
795.86	16621.31
797.75	16912.13
799.63	16668.42
801.52	17178.36
803.41	16860.93
805.29	16985.85
807.18	16361.22
809.06	17026.81
810.94	16658.18
812.82	16729.86
814.70	16500.48
816.59	17299.19
818.47	16897.79
820.35	16705.28
822.22	16733.95
824.10	16805.63
825.98	16897.79
827.86	17266.42
829.73	17209.08
831.61	16934.65
833.48	16889.60
835.36	16946.94
837.23	16885.50
839.10	17008.38
840.98	16807.68
842.85	17297.14
844.72	16781.06
846.59	17215.23
848.46	16973.57
850.33	17035.00
852.20	16994.04
854.06	17411.83
855.93	17209.08
857.80	17372.92
859.66	17094.40
861.53	17096.44
863.39	17106.68
865.26	17321.72
867.12	16887.55
868.98	17063.68
870.84	17213.18
872.71	17125.11
874.57	17403.64
876.43	17385.21
878.29	17800.94
880.14	17686.26
882.00	17428.21
883.86	17008.38
885.72	17929.97
887.57	17497.84
889.43	17600.24
891.28	18233.07
893.14	18026.22
894.99	18534.12
896.84	18163.43
898.69	17987.31
900.55	17977.07
902.40	18587.36
904.25	18601.70
906.10	18517.73
907.95	19199.71
909.79	18970.33
911.64	18642.66
913.49	18845.41
915.34	18773.73
917.18	19089.12
919.03	18802.40
920.87	18749.15
922.71	18231.02
924.56	18521.83
926.40	18333.42
928.24	18245.35
930.08	18171.63
931.92	17977.07
933.76	18235.11
935.60	18403.05
937.44	18097.90
939.28	18020.08
941.12	17878.77
942.95	18085.61
944.79	17559.28
946.62	17499.89
948.46	17430.26
950.29	17886.96
952.13	17991.41
953.96	17655.54
955.79	18284.26
957.62	17702.64
959.46	17606.39
961.29	17805.04
963.12	18040.56
964.94	17659.63
966.77	17800.94
968.60	18403.05
970.43	17782.51
972.25	17987.31
974.08	17805.04
975.91	18044.65
977.73	17977.07
979.55	18145.00
981.38	17839.86
983.20	17792.75
985.02	17733.36
986.84	17913.58
988.66	17518.32
990.49	17833.71
992.30	18038.51
994.12	17979.12
995.94	18284.27
997.76	17856.24
999.58	18122.48
1001.39	17846.00
1003.21	17991.41
1005.02	17821.42
1006.84	17606.39
1008.65	18071.28
1010.47	17911.53
1012.28	17655.54
1014.09	18173.67
1015.90	17778.42
1017.71	17755.89
1019.52	17641.20
1021.33	18032.36
1023.14	17884.91
1024.95	17563.38
1026.76	17903.34
1028.56	18228.97
1030.37	18202.35
1032.18	18044.65
1033.98	18036.46
1035.79	17843.95
1037.59	18065.13
1039.39	17633.01
1041.20	18288.36
1043.00	17698.55
1044.80	18073.32
1046.60	18018.03
1048.40	18042.60
1050.20	17946.35
1052.00	18355.94
1053.80	18102.00
1055.59	18128.62
1057.39	17981.17
1059.19	17950.45
1060.98	18366.18
1062.78	17981.17
1064.57	18190.06
1066.37	18247.40
1068.16	18919.14
1069.95	18783.97
1071.75	18470.63
1073.54	18386.66
1075.33	18120.43
1077.12	18349.80
1078.91	18040.56
1080.70	18290.41
1082.48	18710.24
1084.27	18161.39
1086.06	18740.96
1087.85	18427.62
1089.63	18837.22
1091.42	18331.37
1093.20	18388.71
1094.99	18206.44
1096.77	18546.41
1098.55	18663.14
1100.33	18267.88
1102.12	18433.77
1103.90	18575.08
1105.68	18441.96
1107.46	18693.86
1109.24	18401.00
1111.01	18030.32
1112.79	18228.97
1114.57	18255.59
1116.35	18544.36
1118.12	18153.20
1119.90	18839.26
1121.67	17985.26
1123.45	18548.45
1125.22	18306.79
1126.99	18568.93
1128.77	18560.74
1130.54	18251.50
1132.31	18321.13
1134.08	18218.73
1135.85	18271.98
1137.62	18411.24
1139.39	17852.14
1141.15	18325.22
1142.92	18509.54
1144.69	18235.11
1146.46	18751.20
1148.22	18700.00
1149.99	18509.54
1151.75	18196.20
1153.51	18001.65
1155.28	18177.77
1157.04	18312.94
1158.80	18472.68
1160.56	18464.49
1162.32	18417.38
1164.08	18366.18
1165.84	18714.34
1167.60	18269.93
1169.36	18587.36
1171.12	18157.29
1172.88	18349.80
1174.63	17977.07
1176.39	18509.54
1178.14	18138.86
1179.90	18441.96
1181.65	18759.39
1183.41	18554.60
1185.16	18491.11
1186.91	18271.98
1188.66	18319.08
1190.41	18476.77
1192.16	18321.13
1193.91	18278.12
1195.66	17581.81
1197.41	18493.16
1199.16	18730.72
1200.91	18202.35
1202.66	18470.63
1204.40	18673.38
1206.15	18624.23
1207.89	18437.86
1209.64	18300.65
1211.38	18437.86
1213.12	18054.89
1214.87	18478.82
1216.61	18673.38
1218.35	18163.43
1220.09	18337.51
1221.83	18433.77
1223.57	18700.00
1225.31	18448.10
1227.05	18677.48
1228.79	18456.29
1230.52	18046.70
1232.26	18433.77
1234.00	18622.18
1235.73	18317.03
1237.47	18108.14
1239.20	18570.98
1240.94	18417.38
1242.67	18364.14
1244.40	18360.04
1246.13	18568.93
1247.86	18468.58
1249.60	18489.06
1251.33	18527.97
1253.06	19097.31
1254.78	18417.38
1256.51	19193.56
1258.24	18603.75
1259.97	19025.63
1261.69	18775.78
1263.42	18915.04
1265.15	18718.43
1266.87	18568.93
1268.59	18562.79
1270.32	18855.65
1272.04	18943.71
1273.76	18390.76
1275.49	18362.09
1277.21	18802.40
1278.93	18634.47
1280.65	18706.15
1282.37	18585.32
1284.09	18501.35
1285.81	18519.78
1287.52	18792.16
1289.24	18603.75
1290.96	18661.09
1292.67	18663.14
1294.39	19033.82
1296.10	18685.67
1297.82	19054.30
1299.53	19236.57
1301.24	19021.53
1302.96	18896.61
1304.67	18910.94
1306.38	19144.41
1308.09	19252.95
1309.80	18216.68
1311.51	18865.89
1313.22	18509.54
1314.93	18591.46
1316.64	18884.32
1318.34	19273.43
1320.05	18714.34
1321.75	18730.72
1323.46	18867.94
1325.17	18929.38
1326.87	18632.42
1328.57	18960.09
1330.28	18749.15
1331.98	19166.94
1333.68	18802.40
1335.38	18691.81
1337.08	18898.66
1338.78	19091.16
1340.48	19259.10
1342.18	19289.82
1343.88	19275.48
1345.58	19150.56
1347.28	18818.78
1348.97	18999.01
1350.67	19095.26
1352.36	19087.07
1354.06	19398.36
1355.75	19359.45
1357.45	19136.22
1359.14	19082.97
1360.83	18992.86
1362.53	18939.62
1364.22	19302.11
1365.91	19093.21
1367.60	19050.21
1369.29	19261.15
1370.98	18970.33
1372.67	19017.44
1374.35	18941.66
1376.04	19093.21
1377.73	19300.06
1379.41	19267.29
1381.10	19279.58
1382.79	19537.62
1384.47	19191.52
1386.15	18978.53
1387.84	18816.74
1389.52	18949.85
1391.20	19269.34
1392.88	18974.43
1394.57	19431.13
1396.25	18808.54
1397.93	18939.61
1399.61	19060.45
1401.28	18982.62
1402.96	19189.47
1404.64	19265.24
1406.32	19371.74
1407.99	19152.60
1409.67	19451.61
1411.35	19101.40
1413.02	19130.08
1414.70	19023.58
1416.37	19295.96
1418.04	18912.99
1419.71	18824.93
1421.39	19195.61
1423.06	19236.57
1424.73	19386.07
1426.40	19500.76
1428.07	19549.91
1429.74	19408.60
1431.41	19683.03
1433.08	19637.97
1434.74	19523.29
1436.41	19717.84
1438.08	19459.80
1439.74	19377.88
1441.41	19455.70
1443.07	19404.50
1444.74	19631.83
1446.40	19560.15
1448.06	19533.53
1449.72	19515.09
1451.39	19463.90
1453.05	19891.92
1454.71	20297.42
1456.37	19689.17
1458.03	19957.46
1459.69	19574.49
1461.35	20178.64
1463.00	19351.26
1464.66	19312.35
1466.32	19338.97
1467.97	19433.18
1469.63	19732.18
1471.28	19898.06
1472.94	19775.19
1474.59	19662.55
1476.25	19916.50
1477.90	20043.47
1479.55	19515.09
1481.20	19590.87
1482.85	20782.79
1484.50	20176.59
1486.15	19629.78
1487.80	19504.85
1489.45	19328.73
1491.10	19222.23
1492.75	19160.80
1494.40	19224.28
1496.04	19144.41
1497.69	19398.36
1499.33	19386.07
1500.98	19994.32
1502.62	19855.06
1504.27	19678.93
1505.91	19969.74
1507.55	19644.12
1509.19	19433.18
1510.84	19625.68
1512.48	19859.15
1514.12	19582.68
1515.76	19822.29
1517.40	19615.44
1519.04	19885.78
1520.67	19721.94
1522.31	19963.60
1523.95	19414.74
1525.59	19742.42
1527.22	19549.91
1528.86	19887.82
1530.49	19488.47
1532.13	20135.63
1533.76	19855.06
1535.39	19592.92
1537.03	19812.05
1538.66	19820.24
1540.29	19840.72
1541.92	20070.09
1543.55	19650.26
1545.18	19863.25
1546.81	19959.50
1548.44	20141.77
1550.07	19558.10
1551.70	19672.79
1553.32	19988.18
1554.95	20068.05
1556.58	19738.32
1558.20	19969.74
1559.83	19969.74
1561.45	19347.16
1563.07	19910.35
1564.70	19574.49
1566.32	19576.53
1567.94	19609.30
1569.56	19760.85
1571.19	19877.58
1572.81	20106.96
1574.43	19601.11
1576.05	20022.99
1577.66	19193.56
1579.28	19265.24
1580.90	19601.11
1582.52	19445.46
1584.14	19775.19
1585.75	19390.17
1587.37	19687.12
1588.98	19521.24
1590.60	19533.53
1592.21	19289.82
1593.82	19818.19
1595.44	19465.94
1597.05	19582.68
1598.66	19095.26
1600.27	19517.14
1601.88	19840.72
1603.49	16123.66
1605.10	19766.99
1606.71	19599.06
1608.32	19697.36
1609.93	19574.49
1611.54	19482.33
1613.14	19506.90
1614.75	19889.87
1616.36	19660.50
1617.96	19777.23
1619.57	19916.50
1621.17	19482.33
1622.77	19939.02
1624.38	19994.32
1625.98	19889.87
1627.58	20008.65
1629.18	20104.91
1630.78	19726.04
1632.38	19803.86
1633.98	20209.36
1635.58	20340.43
1637.18	19412.70
1638.78	20258.51
1640.38	19758.80
1641.98	19959.50
1643.57	19994.32
1645.17	20238.03
1646.76	19517.14
1648.36	19730.13
1649.95	19779.28
1651.55	19685.08
1653.14	19355.35
1654.73	19977.94
1656.33	20199.12
1657.92	20010.70
1659.51	20076.24
1661.10	19930.83
1662.69	20072.14
1664.28	19824.34
1665.87	19668.69
1667.46	19695.32
1669.05	19562.20
1670.63	19691.22
1672.22	19500.76
1673.81	19691.22
1675.39	19726.04
1676.98	20094.67
1678.56	19711.70
1680.15	19179.23
1681.73	19285.72
1683.31	19644.12
1684.90	19252.95
1686.48	19482.33
1688.06	19244.76
1689.64	19422.94
1691.22	19863.25
1692.80	19986.13
1694.38	20156.11
1695.96	20223.69
1697.54	19816.15
1699.12	19971.79
1700.69	19810.00
1702.27	19410.65
1703.85	19777.23
1705.42	19605.20
1707.00	19320.54
1708.57	19644.12
1710.15	19386.07
1711.72	19441.37
1713.29	19603.16
1714.87	20512.46
1716.44	19846.87
1718.01	20225.74
1719.58	20053.71
1721.15	19816.15
1722.72	19633.88
1724.29	19816.15
1725.86	19373.78
1727.43	19535.57
1729.00	19451.61
1730.56	19529.43
1732.13	19597.01
1733.70	19482.33
1735.26	19459.80
1736.83	19943.12
1738.39	19781.33
1739.96	19914.45
1741.52	19527.38
1743.08	19777.23
1744.65	19545.81
1746.21	19848.91
1747.77	19513.05
1749.33	19414.74
1750.89	19904.21
1752.45	19717.84
1754.01	19683.03
1755.57	19410.65
1757.13	19570.39
1758.69	19128.03
1760.24	19508.95
1761.80	19662.55
1763.36	19435.22
1764.91	19521.24
1766.47	19721.94
1768.02	19936.98
1769.58	19504.85
1771.13	19787.47
1772.68	19642.07
1774.24	19533.53
1775.79	19349.21
1777.34	19044.06
1778.89	19334.87
1780.44	19314.39
1781.99	18915.04
1783.54	19306.20
1785.09	19312.35
1786.64	19799.76
1788.19	19703.51
1789.73	19812.05
1791.28	20055.76
1792.83	19543.77
1794.37	19367.64
1795.92	19623.64
1797.46	19312.35
1799.01	19590.87
1800.55	19785.43
1802.09	19975.89
1803.64	19543.77
1805.18	19637.97
1806.72	19384.02
1808.26	19732.18
1809.80	19662.55
1811.34	19689.17
1812.88	19183.32
1814.42	19298.01
1815.96	19982.03
1817.50	19924.69
1819.04	19392.22
1820.57	19922.64
1822.11	20319.95
1823.65	20010.70
1825.18	19906.26
1826.72	20090.57
1828.25	20100.81
1829.78	19871.44
1831.32	19723.99
1832.85	19261.15
1834.38	19543.77
1835.92	20172.49
1837.45	19668.69
1838.98	19758.80
1840.51	19760.85
1842.04	19910.35
1843.57	19855.06
1845.10	19736.27
1846.62	19871.44
1848.15	20031.18
1849.68	19650.26
1851.21	19695.32
1852.73	19850.96
1854.26	19756.75
1855.78	19672.79
1857.31	19672.79
1858.83	19971.79
1860.36	19898.06
1861.88	19609.30
1863.40	19302.11
1864.92	20268.75
1866.45	20158.16
1867.97	20078.29
1869.49	19513.05
1871.01	19930.83
1872.53	19992.27
1874.05	20135.63
1875.57	19345.11
1877.08	20094.67
1878.60	20246.22
1880.12	20082.38
1881.64	20145.87
1883.15	20025.04
1884.67	19717.84
1886.18	19689.17
1887.70	20145.87
1889.21	20336.33
1890.72	20514.50
1892.24	19668.69
1893.75	19926.74
1895.26	19861.20
1896.77	19857.10
1898.28	19752.66
1899.79	20354.76
1901.30	20158.16
1902.81	20143.82
1904.32	20330.19
1905.83	20088.53
1907.34	19863.25
1908.85	20661.96
1910.35	20336.33
1911.86	20033.23
1913.37	19580.63
1914.87	20070.09
1916.38	19676.88
1917.88	19789.52
1919.39	19904.21
1920.89	20057.81
1922.39	19984.08
1923.89	19902.16
1925.40	19771.09
1926.90	20195.02
1928.40	20387.53
1929.90	19979.98
1931.40	20586.18
1932.90	20283.08
1934.40	20434.63
1935.90	20459.21
1937.39	20328.14
1938.89	20360.91
1940.39	19607.25
1941.89	19687.12
1943.38	19881.68
1944.88	19482.33
1946.37	20309.71
1947.87	19996.37
1949.36	20405.96
1950.85	19431.13
1952.35	19676.88
1953.84	19908.30
1955.33	19961.55
1956.82	20016.85
1958.31	19695.32
1959.80	19728.08
1961.29	19738.32
1962.78	19871.44
1964.27	19871.44
1965.76	19717.84
1967.25	19822.29
1968.74	19828.43
1970.22	20022.99
1971.71	19535.57
1973.20	19666.64
1974.68	19867.34
1976.17	19689.17
1977.65	20283.08
1979.14	19701.46
1980.62	20016.85
1982.10	19936.98
1983.58	19752.66
1985.07	20158.16
1986.55	20037.33
1988.03	19830.48
1989.51	19766.99
1990.99	19644.12
1992.47	19650.26
1993.95	19869.39
1995.43	19617.49
1996.91	19701.46
1998.38	19869.39
1999.86	19549.91
2001.34	19719.89
2002.81	19801.81
2004.29	19785.43
2005.76	19687.12
2007.24	19850.96
2008.71	20049.61
2010.19	19611.35
2011.66	19607.25
2013.13	20043.47
2014.60	19705.56
2016.08	19214.04
2017.55	19179.23
2019.02	18953.95
2020.49	19560.15
2021.96	19207.90
2023.43	19320.54
2024.90	19535.57
2026.36	19365.59
2027.83	19769.04
2029.30	19498.71
2030.77	19308.25
2032.23	19291.87
2033.70	19089.12
2035.16	19592.92
2036.63	19746.51
2038.09	19381.98
2039.56	19261.15
2041.02	19277.53
2042.48	19711.70
2043.95	19201.75
2045.41	19285.72
2046.87	19066.59
2048.33	19181.28
2049.79	19105.50
2051.25	19279.58
2052.71	18771.68
2054.17	19283.67
2055.63	18921.18
2057.09	18605.80
2058.54	18732.77
2060.00	19101.40
2061.46	19232.47
2062.91	19640.02
2064.37	19236.57
2065.82	18984.67
2067.28	18790.11
2068.73	18523.88
2070.19	18896.61
2071.64	18556.64
2073.09	19123.93
2074.54	18691.81
2076.00	19263.19
2077.45	19082.97
2078.90	19496.66
2080.35	18980.57
2081.80	18708.19
2083.25	18779.87
2084.70	18953.95
2086.14	18759.39
2087.59	19015.39
2089.04	18824.93
2090.49	18958.05
2091.93	19111.64
2093.38	19076.83
2094.83	19250.91
2096.27	19222.23
2097.71	19166.94
2099.16	19539.67
2100.60	19009.25
2102.05	18728.67
2103.49	19033.82
2104.93	19203.80
2106.37	19048.16
2107.81	18763.49
2109.25	18663.14
2110.69	18673.38
2112.13	18738.91
2113.57	18915.04
2115.01	19433.18
2116.45	18978.53
2117.89	19191.52
2119.33	19281.63
2120.76	18765.54
2122.20	19027.68
2123.63	18863.84
2125.07	19246.81
2126.51	18949.85
2127.94	18679.52
2129.37	18743.01
2130.81	19551.96
2132.24	19140.32
2133.67	18974.43
2135.11	19230.43
2136.54	18779.87
2137.97	18820.83
2139.40	18372.33
2140.83	18884.32
2142.26	18573.03
2143.69	18452.20
2145.12	19074.78
2146.55	18941.66
2147.97	18941.66
2149.40	18712.29
2150.83	18929.38
2152.25	19191.52
2153.68	18663.14
2155.11	18904.80
2156.53	18693.86
2157.96	18323.18
2159.38	19103.45
2160.80	18331.37
2162.23	18945.76
2163.65	18814.69
2165.07	18464.49
2166.49	18849.50
2167.91	18310.89
2169.33	18482.92
2170.75	18460.39
2172.17	19547.86
2173.59	18732.77
2175.01	18505.45
2176.43	18720.48
2177.85	18710.24
2179.27	18601.70
2180.68	18982.62
2182.10	19113.69
2183.52	18853.60
2184.93	18628.32
2186.35	18579.17
2187.76	18693.86
2189.18	18427.62
2190.59	18605.80
2192.00	18575.08
2193.42	18179.82
2194.83	18460.39
2196.24	18894.56
2197.65	19248.86
2199.06	18794.21
2200.47	19214.04
2201.88	19050.21
2203.29	18999.01
2204.70	18855.65
2206.11	18941.66
2207.52	18654.95
2208.93	18898.66
2210.33	18446.05
2211.74	18335.46
2213.15	18837.22
2214.55	18312.94
2215.96	18749.15
2217.36	18691.81
2218.77	18591.46
2220.17	18783.97
2221.57	18308.84
2222.98	18296.55
2224.38	18695.91
2225.78	18466.53
2227.18	18609.89
2228.58	18753.25
2229.99	18609.89
2231.39	19265.24
2232.79	18581.22
2234.18	19197.66
2235.58	18460.39
2236.98	18857.70
2238.38	18990.81
2239.78	18861.79
2241.17	19037.92
2242.57	19033.82
2243.97	18775.78
2245.36	19455.70
2246.76	19283.67
2248.15	19818.19
2249.55	19650.26
2250.94	20061.90
2252.33	19949.26
2253.73	19842.77
2255.12	20016.85
2256.51	20231.88
2257.90	20063.95
2259.29	20235.98
2260.68	19889.87
2262.07	19291.87
2263.46	19351.26
2264.85	18687.71
2266.24	18673.38
2267.63	19046.11
2269.02	18812.64
2270.40	18704.10
2271.79	18953.95
2273.18	18716.39
2274.56	18476.77
2275.95	18700.00
2277.33	18474.73
2278.72	18540.26
2280.10	18601.70
2281.49	18712.29
2282.87	18317.03
2284.25	18613.99
2285.63	17790.70
2287.02	18507.49
2288.40	18933.47
2289.78	18235.11
2291.16	18212.59
2292.54	18636.52
2293.92	18659.04
2295.30	18654.95
2296.68	18122.48
2298.05	18509.54
2299.43	18691.81
2300.81	18661.09
2302.19	18505.45
2303.56	18202.35
2304.94	18087.66
2306.31	18407.14
2307.69	18050.80
2309.06	17932.01
2310.44	17868.53
2311.81	18020.08
2313.19	17903.34
2314.56	18067.18
2315.93	18145.00
2317.30	18439.91
2318.67	17649.39
2320.04	18003.69
2321.41	17815.28
2322.78	17573.62
2324.15	18097.90
2325.52	18077.42
2326.89	17958.64
2328.26	17757.94
2329.63	18044.65
2331.00	17782.51
2332.36	17985.26
2333.73	17782.51
2335.09	17884.91
2336.46	18073.32
2337.83	17862.38
2339.19	18134.76
2340.55	18005.74
2341.92	18030.32
2343.28	17460.98
2344.64	17684.21
2346.01	17678.07
2347.37	18079.47
2348.73	17587.96
2350.09	17725.17
2351.45	17835.76
2352.81	17712.88
2354.17	18241.26
2355.53	17704.69
2356.89	17501.94
2358.25	17440.50
2359.61	17923.82
2360.96	17800.94
2362.32	17420.02
2363.68	17669.87
2365.03	17610.48
2366.39	17927.92
2367.74	17559.28
2369.10	17704.69
2370.45	17800.94
2371.81	17538.80
2373.16	17587.96
2374.51	17620.72
2375.86	17952.49
2377.22	17491.70
2378.57	17686.26
2379.92	17841.90
2381.27	18022.12
2382.62	18089.71
2383.97	17520.37
2385.32	17622.77
2386.67	17829.62
2388.02	17348.34
2389.37	17360.63
2390.71	17467.13
2392.06	17407.73
2393.41	17852.14
2394.75	17725.17
2396.10	17843.95
2397.44	17889.01
2398.79	17815.28
2400.13	17964.78
2401.48	17798.90
2402.82	17805.04
2404.17	17297.14
2405.51	17413.88
2406.85	17716.98
2408.19	17495.80
2409.53	17399.54
2410.87	17876.72
2412.22	17774.32
2413.56	17524.47
2414.89	17309.43
2416.23	17860.34
2417.57	17508.08
2418.91	17710.83
2420.25	17362.68
2421.59	17358.58
2422.92	17104.64
2424.26	17495.80
2425.60	17340.15
2426.93	17610.48
2428.27	17295.10
2429.60	17055.48
2430.94	17032.96
2432.27	16805.63
2433.60	17401.59
2434.94	17309.43
2436.27	17440.50
2437.60	17413.88
2438.93	17389.30
2440.27	17047.29
2441.60	16934.65
2442.93	16828.16
2444.26	17278.71
2445.59	17252.09
2446.92	17194.75
2448.24	17247.99
2449.57	17092.35
2450.90	16885.50
2452.23	16992.00
2453.55	16994.04
2454.88	16844.54
2456.21	17086.20
2457.53	17276.66
2458.86	17164.03
2460.18	17542.90
2461.51	17323.77
2462.83	17102.59
2464.15	17280.76
2465.48	17186.55
2466.80	17247.99
2468.12	17057.53
2469.44	17129.21
2470.76	17188.60
2472.09	16987.90
2473.41	17368.82
2474.73	17020.67
2476.05	16826.11
2477.36	17137.40
2478.68	17147.64
2480.00	17164.03
2481.32	16744.19
2482.64	17063.68
2483.95	16885.50
2485.27	17291.00
2486.59	16955.13
2487.90	17170.17
2489.22	17178.36
2490.53	16625.41
2491.85	17067.77
2493.16	17039.10
2494.47	17522.42
2495.79	16996.09
2497.10	16985.85
2498.41	16453.38
2499.72	17096.44
2501.03	16541.44
2502.35	17092.35
2503.66	17063.68
2504.97	16668.42
2506.28	16846.59
2507.59	16928.51
2508.89	16867.07
2510.20	16938.75
2511.51	16963.33
2512.82	16629.51
2514.12	16885.50
2515.43	16535.30
2516.74	16738.05
2518.04	16613.12
2519.35	16709.38
2520.65	16041.74
2521.96	16387.85
2523.26	16512.77
2524.57	16658.18
2525.87	16719.62
2527.17	16809.73
2528.47	16791.30
2529.78	16303.88
2531.08	16609.03
2532.38	16916.22
2533.68	16637.70
2534.98	16373.51
2536.28	16729.86
2537.58	16234.25
2538.88	16490.24
2540.18	16013.07
2541.47	16516.87
2542.77	16127.75
2544.07	16488.20
2545.37	16611.07
2546.66	16228.10
2547.96	16129.80
2549.25	16715.52
2550.55	16361.22
2551.84	16465.67
2553.14	16224.01
2554.43	16512.77
2555.72	16193.29
2557.02	16363.27
2558.31	16391.94
2559.60	16699.14
2560.89	16344.84
2562.18	16393.99
2563.48	16045.84
2564.77	15933.20
2566.06	16183.05
2567.35	16185.10
2568.63	16617.22
2569.92	16260.87
2571.21	16092.94
2572.50	16027.40
2573.79	16486.15
2575.07	16520.96
2576.36	16525.06
2577.65	16652.03
2578.93	16424.71
2580.22	16361.22
2581.50	16097.03
2582.79	16183.05
2584.07	15914.77
2585.36	15836.94
2586.64	16004.88
2587.92	15941.39
2589.20	16166.67
2590.49	16123.66
2591.77	16084.75
2593.05	16344.84
2594.33	16006.92
2595.61	16045.84
2596.89	16115.47
2598.17	16213.77
2599.45	16144.14
2600.73	16033.55
2602.00	16099.08
2603.28	16097.03
2604.56	15908.62
2605.84	16086.79
2607.11	16422.66
2608.39	16115.47
2609.67	16025.36
2610.94	16086.79
2612.22	16105.23
2613.49	15777.55
2614.76	15873.81
2616.04	16105.23
2617.31	15712.02
2618.58	16006.92
2619.86	15503.12
2621.13	15664.91
2622.40	15795.98
2623.67	15879.95
2624.94	16025.36
2626.21	15763.22
2627.48	15484.69
2628.75	15195.93
2630.02	15032.09
2631.29	15439.64
2632.56	15445.78
2633.82	15273.75
2635.09	15701.78
2636.36	16105.23
2637.63	15974.16
2638.89	15877.90
2640.16	15675.15
2641.42	16064.27
2642.69	15957.77
2643.95	15660.82
2645.22	15552.27
2646.48	15187.74
2647.74	15927.05
2649.01	15243.03
2650.27	15421.20
2651.53	15415.06
2652.79	15771.41
2654.05	15515.41
2655.31	15288.09
2656.57	15488.79
2657.83	15288.09
2659.09	15441.68
2660.35	15316.76
2661.61	15871.76
2662.87	15421.20
2664.13	15724.30
2665.38	15826.70
2666.64	16013.07
2667.90	15765.26
2669.15	15589.14
2670.41	15351.57
2671.67	15212.31
2672.92	15644.43
2674.17	15240.98
2675.43	15603.47
2676.68	15351.57
2677.94	15167.26
2679.19	15613.71
2680.44	15431.44
2681.69	15814.41
2682.95	15402.77
2684.20	15433.49
2685.45	15732.50
2686.70	15496.98
2687.95	15619.86
2689.20	15798.03
2690.45	15466.26
2691.70	15537.94
2692.94	15531.79
2694.19	15222.55
2695.44	15431.44
2696.69	15206.17
2697.93	15388.44
2699.18	15458.07
2700.43	15355.67
2701.67	15486.74
2702.92	15460.12
2704.16	15341.33
2705.41	15605.52
2706.65	15640.34
2707.89	15570.71
2709.14	15275.80
2710.38	15451.92
2711.62	15761.17
2712.86	15136.54
2714.11	15101.72
2715.35	15257.37
2716.59	15202.07
2717.83	14702.37
2719.07	15279.89
2720.31	15126.30
2721.55	15308.57
2722.78	15187.74
2724.02	14901.02
2725.26	15359.77
2726.50	14989.08
2727.73	15331.09
2728.97	15279.89
2730.21	14702.37
2731.44	15144.73
2732.68	15359.77
2733.91	14892.83
2735.15	14954.27
2736.38	14913.31
2737.62	14587.68
2738.85	14755.61
2740.08	15007.52
2741.32	15040.28
2742.55	15152.92
2743.78	15009.56
2745.01	14954.27
2746.24	15738.64
2747.47	15036.19
2748.70	14864.16
2749.93	14884.64
2751.16	15451.92
2752.39	15234.84
2753.62	15458.07
2754.85	15255.32
2756.08	15374.10
2757.30	15263.51
2758.53	15339.29
2759.76	14933.79
2760.98	15146.78
2762.21	15320.85
2763.43	15161.11
2764.66	15218.46
2765.88	15222.55
2767.11	15230.74
2768.33	14597.92
2769.55	15257.37
2770.78	15134.49
2772.00	14819.10
2773.22	14972.70
2774.44	15042.33
2775.67	15089.43
2776.89	14792.48
2778.11	14595.87
2779.33	14792.48
2780.55	14974.75
2781.77	15152.92
2782.99	15040.28
2784.20	14823.20
2785.42	15087.39
2786.64	14595.87
2787.86	14960.41
2789.07	14815.01
2790.29	14839.58
2791.51	14933.79
2792.72	14726.94
2793.94	14735.14
2795.15	15042.33
2796.37	14964.51
2797.58	14513.95
2798.80	14690.08
2800.01	15066.91
2801.22	14786.33
2802.44	14786.33
2803.65	14559.01
2804.86	14573.35
2806.07	14552.87
2807.28	14649.12
2808.49	14436.13
2809.70	14665.50
2810.91	14518.05
2812.12	14884.64
2813.33	14438.18
2814.54	15054.62
2815.75	14665.50
2816.96	15386.39
2818.16	15071.00
2819.37	15073.05
2820.58	14573.35
2821.78	14802.72
2822.99	14438.18
2824.20	14290.73
2825.40	14624.54
2826.61	14614.30
2827.81	14415.65
2829.01	14507.81
2830.22	14448.42
2831.42	14645.02
2832.62	14763.81
2833.83	14952.22
2835.03	14466.85
2836.23	14395.17
2837.43	14722.85
2838.63	14630.69
2839.83	14657.31
2841.03	14661.41
2842.23	13952.81
2843.43	14231.33
2844.63	14300.97
2845.83	14356.26
2847.03	14870.30
2848.22	14726.94
2849.42	14796.57
2850.62	14462.76
2851.81	14632.74
2853.01	14327.59
2854.21	14409.51
2855.40	14235.43
2856.60	14186.28
2857.79	14393.12
2858.99	13885.23
2860.18	13928.24
2861.37	14083.88
2862.57	14825.25
2863.76	14987.04
2864.95	14630.69
2866.14	14288.68
2867.33	14235.43
2868.52	14225.19
2869.72	14243.62
2870.91	14139.18
2872.10	14184.23
2873.28	13995.82
2874.47	13786.93
2875.66	13852.46
2876.85	14049.07
2878.04	14229.29
2879.23	14358.31
2880.41	14249.77
2881.60	14362.40
2882.79	14243.62
2883.97	14288.68
2885.16	14141.22
2886.34	14124.84
2887.53	14161.70
2888.71	14333.73
2889.90	14159.66
2891.08	14262.05
2892.26	14382.88
2893.45	14407.46
2894.63	14110.50
2895.81	13895.47
2896.99	13575.98
2898.17	13811.50
2899.36	13985.58
2900.54	13975.34
2901.72	13825.84
2902.90	13799.21
2904.08	14010.15
2905.26	13901.61
2906.43	14094.12
2907.61	14073.64
2908.79	13981.48
2909.97	14018.35
2911.14	13934.38
2912.32	13745.97
2913.50	13674.29
2914.67	13602.61
2915.85	14190.38
2917.02	14092.07
2918.20	13827.88
2919.37	13903.66
2920.55	13713.20
2921.72	13543.22
2922.90	14135.08
2924.07	13854.51
2925.24	13813.55
2926.41	13459.25
2927.58	13596.46
2928.76	13287.22
2929.93	13500.21
2931.10	13797.17
2932.27	13496.11
2933.44	13463.35
2934.61	13512.50
2935.78	13635.38
2936.95	13809.45
2938.11	13940.52
2939.28	13526.83
2940.45	13492.02
2941.62	13688.62
2942.78	13684.53
2943.95	13649.71
2945.12	13772.59
2946.28	13915.95
2947.45	13602.61
2948.61	13868.84
2949.78	13526.83
2950.94	13715.25
2952.10	13702.96
2953.27	14217.00
2954.43	13614.90
2955.59	13858.60
2956.76	13487.92
2957.92	13575.98
2959.08	13989.67
2960.24	13729.58
2961.40	13250.36
2962.56	13825.84
2963.72	13924.14
2964.88	13827.88
2966.04	13805.36
2967.20	13506.35
2968.36	13639.47
2969.52	13422.39
2970.67	13600.56
2971.83	13248.31
2972.99	13770.54
2974.14	13328.18
2975.30	13367.09
2976.46	13256.50
2977.61	13778.73
2978.77	13610.80
2979.92	13514.55
2981.08	13911.85
2982.23	13680.43
2983.38	13436.72
2984.54	13264.69
2985.69	13510.45
2986.84	13537.07
2987.99	13588.27
2989.15	13535.03
2990.30	13154.10
2991.45	13010.75
2992.60	12965.69
2993.75	13211.45
2994.90	13229.88
2996.05	13244.21
2997.20	13592.37
2998.35	13741.87
2999.49	13586.22
3000.64	13383.48
3001.79	13094.71
3002.94	13203.25
3004.08	13137.72
3005.23	13442.87
3006.38	13520.69
3007.52	13553.46
3008.67	13363.00
3009.81	12965.69
3010.96	12971.83
3012.10	12750.65
3013.25	13256.50
3014.39	13512.50
3015.53	12867.39
3016.67	13606.70
3017.82	13123.38
3018.96	13469.49
3020.10	13578.03
3021.24	13344.56
3022.38	13377.33
3023.52	13717.29
3024.66	13512.50
3025.80	13285.17
3026.94	13236.02
3028.08	13002.55
3029.22	13217.59
3030.36	12787.52
3031.50	13184.82
3032.63	13305.65
3033.77	12955.45
3034.91	13500.21
3036.04	13250.36
3037.18	13377.33
3038.32	13213.49
3039.45	12681.02
3040.59	13092.66
3041.72	13350.71
3042.86	13231.93
3043.99	13588.27
3045.12	13178.68
3046.26	13494.07
3047.39	13068.09
3048.52	13051.70
3049.65	12869.44
3050.78	12810.04
3051.92	13078.33
3053.05	13086.52
3054.18	13172.53
3055.31	12926.78
3056.44	12980.03
3057.57	13291.32
3058.70	13145.91
3059.82	12918.59
3060.95	12990.27
3062.08	13037.37
3063.21	13213.49
3064.34	13422.39
3065.46	13047.61
3066.59	13193.01
3067.71	13442.87
3068.84	13418.29
3069.97	13127.48
3071.09	13178.68
3072.22	13078.33
3073.34	12951.35
3074.46	13248.31
3075.59	12926.78
3076.71	12951.35
3077.83	12871.48
3078.96	13119.29
3080.08	12955.45
3081.20	12941.11
3082.32	13076.28
3083.44	12764.99
3084.56	13029.18
3085.68	12715.84
3086.80	13471.54
3087.92	13082.42
3089.04	13082.42
3090.16	12812.09
3091.28	13068.09
3092.40	12769.09
3093.51	13215.54
3094.63	13049.66
3095.75	12865.34
3096.87	12779.32
3097.98	12898.11
3099.10	12711.74
3100.21	12396.35
3101.33	12506.95
3102.44	12777.28
3103.56	12812.09
3104.67	12916.54
3105.79	12408.64
3106.90	12721.98
3108.01	12678.97
3109.12	12539.71
3110.24	12822.33
3111.35	12465.99
3112.46	12478.27
3113.57	12410.69
3114.68	12287.81
3115.79	12500.80
3116.90	12922.68
3118.01	12812.09
3119.12	12164.93
3120.23	12484.42
3121.34	12838.72
3122.45	12461.89
3123.56	12674.88
3124.66	12216.13
3125.77	12517.19
3126.88	12541.76
3127.98	12531.52
3129.09	12635.97
3130.20	12656.45
3131.30	12789.56
3132.41	12767.04
3133.51	12674.88
3134.61	12472.13
3135.72	12734.27
3136.82	12574.53
3137.93	12357.44
3139.03	12367.68
3140.13	12451.65
3141.23	12687.17
3142.33	12472.13
3143.44	12484.42
3144.54	12660.54
3145.64	12351.30
3146.74	12701.50
3147.84	12762.94
3148.94	12306.24
3150.04	12351.30
3151.14	12570.43
3152.23	12752.70
3153.33	12140.36
3154.43	12310.34
3155.53	12693.31
3156.63	12851.00
3157.72	12922.68
3158.82	12461.89
3159.91	12343.11
3161.01	12369.73
3162.11	12502.85
3163.20	12259.14
3164.30	12388.16
3165.39	11878.22
3166.48	12504.90
3167.58	12349.25
3168.67	12273.48
3169.76	12296.00
3170.86	12328.77
3171.95	12324.68
3173.04	12152.65
3174.13	12113.74
3175.22	11956.04
3176.31	12240.71
3177.40	12212.04
3178.49	12465.99
3179.58	12300.10
3180.67	12185.41
3181.76	12083.02
3182.85	12212.04
3183.94	11931.47
3185.03	11974.47
3186.11	12238.66
3187.20	12185.41
3188.29	11962.19
3189.37	12117.83
3190.46	12078.92
3191.55	12050.25
3192.63	12078.92
3193.72	11603.79
3194.80	12068.68
3195.89	11886.41
3196.97	11833.16
3198.05	11763.53
3199.14	11546.45
3200.22	11753.29
3201.30	11732.81
3202.38	12005.19
3203.47	11935.56
3204.55	12308.29
3205.63	12443.46
3206.71	11900.75
3207.79	11700.05
3208.87	11972.43
3209.95	12103.50
3211.03	12080.97
3212.11	11722.57
3213.19	11777.87
3214.27	11765.58
3215.34	11915.08
3216.42	11984.71
3217.50	11849.55
3218.58	11892.55
3219.65	11749.20
3220.73	11487.06
3221.80	11673.42
3222.88	11636.56
3223.96	11769.68
3225.03	11698.00
3226.10	11462.48
3227.18	11632.46
3228.25	11908.94
3229.33	12052.30
3230.40	11605.84
3231.47	11648.85
3232.54	11886.41
3233.62	11714.38
3234.69	11790.16
3235.76	11718.48
3236.83	11380.56
3237.90	11845.45
3238.97	11571.02
3240.04	11327.32
3241.11	11910.99
3242.18	11790.16
3243.25	11609.93
3244.32	11702.09
3245.39	11822.92
3246.45	11630.41
3247.52	11409.23
3248.59	11687.76
3249.66	11394.90
3250.72	11798.35
3251.79	11568.98
3252.85	11167.57
3253.92	11315.03
3254.98	11247.44
3256.05	11226.96
3257.11	11056.98
3258.18	10895.19
3259.24	11267.92
3260.30	11267.92
3261.37	11321.17
3262.43	11435.86
3263.49	11472.72
3264.55	11415.38
3265.62	11566.93
3266.68	11335.51
3267.74	11396.95
3268.80	11517.78
3269.86	11421.52
3270.92	11298.64
3271.98	11286.36
3273.04	11077.46
3274.10	11032.41
3275.16	11282.26
3276.21	11079.51
3277.27	10757.98
3278.33	11009.88
3279.39	11222.87
3280.44	11018.07
3281.50	11237.20
3282.56	10735.45
3283.61	11429.71
3284.67	11087.70
3285.72	11274.07
3286.78	11069.27
3287.83	11300.69
3288.88	10870.62
3289.94	11110.23
3290.99	11153.24
3292.04	10995.54
3293.10	10936.15
3294.15	11165.53
3295.20	11122.52
3296.25	11091.80
3297.30	11108.18
3298.36	10669.92
3299.41	11034.46
3300.46	10669.92
3301.51	11013.98
3302.56	10803.04
3303.61	11255.64
3304.65	11069.27
3305.70	11161.43
3306.75	11085.65
3307.80	11083.61
3308.85	11073.37
3309.89	10753.88
3310.94	10798.94
3311.99	10807.13
3313.03	11038.55
3314.08	11085.65
3315.12	10805.08
3316.17	10698.59
3317.21	10913.63
3318.26	10977.11
3319.30	10798.94
3320.35	10997.59
3321.39	10835.80
3322.43	10889.05
3323.48	10831.71
3324.52	10835.80
3325.56	10825.56
3326.60	10782.56
3327.64	10858.33
3328.68	11032.41
3329.73	10960.73
3330.77	10770.27
3331.81	10923.87
3332.85	10833.75
3333.88	10602.33
3334.92	10878.81
3335.96	10882.91
3337.00	10932.06
3338.04	10809.18
3339.08	11042.65
3340.11	11059.03
3341.15	10968.92
3342.19	11034.46
3343.22	10884.95
3344.26	10651.49
3345.30	10813.28
3346.33	10563.42
3347.37	10889.05
3348.40	10884.95
3349.43	10772.32
3350.47	10565.47
3351.50	10794.84
3352.54	11081.56
3353.57	10860.38
3354.60	10891.10
3355.63	11089.75
3356.67	11061.08
3357.70	10991.45
3358.73	10602.33
3359.76	10977.11
3360.79	11056.98
3361.82	10809.18
3362.85	10919.77
3363.88	10641.25
3364.91	10661.73
3365.94	10723.16
3366.97	10583.90
3367.99	10901.34
3369.02	11007.83
3370.05	10768.22
3371.08	10811.23
3372.10	10624.86
3373.13	10501.98
3374.16	10901.34
3375.18	10639.20
3376.21	10463.07
3377.23	10897.24
3378.26	10798.94
3379.28	10626.91
3380.31	10598.24
3381.33	10899.29
3382.35	10788.70
3383.38	10643.29
3384.40	10544.99
3385.42	10491.74
3386.45	10569.57
3387.47	10706.78
3388.49	10895.19
3389.51	10827.61
3390.53	10719.07
3391.55	10727.26
3392.57	10706.78
3393.59	10897.24
3394.61	10657.63
3395.63	10813.28
3396.65	10786.65
3397.67	10530.66
3398.69	10708.83
3399.70	10401.63
3400.72	10618.72
3401.74	10594.14
3402.76	10166.12
3403.77	10022.76
3404.79	10317.67
3405.80	10622.81
3406.82	10413.92
3407.83	10671.97
3408.85	10471.26
3409.86	10579.81
3410.88	10602.33
3411.89	10753.88
3412.91	10827.61
3413.92	10958.68
3414.93	10487.65
3415.94	10561.37
3416.96	10342.24
3417.97	10612.57
3418.98	10655.58
3419.99	10821.47
3421.00	10332.00
3422.01	10360.67
3423.02	10014.57
3424.03	10401.63
3425.04	10116.97
3426.05	10456.93
3427.06	10508.13
3428.07	10424.16
3429.08	10727.26
3430.09	10768.22
3431.09	10549.09
3432.10	10737.50
3433.11	10864.47
3434.12	10516.32
3435.12	10325.86
3436.13	10538.85
3437.13	10458.98
3438.14	10217.32
3439.14	10504.03
3440.15	10188.64
3441.15	10278.76
3442.16	10321.76
3443.16	10360.67
3444.16	10184.55
3445.17	10682.20
3446.17	10245.99
3447.17	10166.12
3448.17	10114.92
3449.18	10413.92
3450.18	10483.55
3451.18	10415.97
3452.18	10377.06
3453.18	10235.75
3454.18	10209.12
3455.18	10162.02
3456.18	10323.81
3457.18	10469.22
3458.18	10438.50
3459.17	10372.96
3460.17	10317.67
3461.17	10284.90
3462.17	10360.67
3463.17	10458.98
3464.16	10063.72
3465.16	10225.51
3466.15	10035.05
3467.15	10213.22
3468.15	10266.47
3469.14	10184.55
3470.14	10227.56
3471.13	10004.33
3472.13	10170.21
3473.12	9893.74
3474.11	9752.43
3475.11	10237.80
3476.10	10215.27
3477.09	10202.98
3478.08	10114.92
3479.08	10006.38
3480.07	9822.06
3481.06	9846.63
3482.05	10209.12
3483.04	10162.02
3484.03	10262.37
3485.02	9957.22
3486.01	10334.05
3487.00	10137.45
3487.99	9977.70
3488.98	10053.48
3489.97	10012.52
3490.95	9680.75
3491.94	9742.19
3492.93	9756.52
3493.92	9797.48
3494.90	9619.31
3495.89	9684.84
3496.88	9766.76
3497.86	9842.54
3498.85	9889.64
3499.83	9688.94
3500.82	9660.27
3501.80	9633.64
3502.79	9777.00
3503.77	9586.54
3504.75	9721.71
3505.74	9504.62
3506.72	9611.12
3507.70	9934.70
3508.68	9852.78
3509.67	9723.76
3510.65	9887.59
3511.63	9926.50
3512.61	9748.33
3513.59	9877.35
3514.57	9895.78
3515.55	9768.81
3516.53	9578.35
3517.51	9768.81
3518.49	9715.56
3519.47	9561.97
3520.45	9484.14
3521.42	9586.54
3522.40	9480.05
3523.38	9373.55
3524.36	9387.89
3525.33	9473.90
3526.31	9424.75
3527.29	9361.27
3528.26	9568.11
3529.24	9342.83
3530.21	9699.18
3531.19	9365.36
3532.16	9664.36
3533.14	9510.77
3534.11	9512.81
3535.08	9430.90
3536.06	9619.31
3537.03	9277.30
3538.00	9570.16
3538.98	9502.58
3539.95	9209.72
3540.92	9154.42
3541.89	9385.84
3542.86	9193.33
3543.83	9275.25
3544.80	8879.99
3545.77	9088.89
3546.74	9140.08
3547.71	9213.81
3548.68	9297.78
3549.65	9414.51
3550.62	9287.54
3551.59	9713.52
3552.56	9600.88
3553.52	9416.56
3554.49	9258.87
3555.46	9351.03
3556.42	9164.66
3557.39	8972.15
3558.36	9047.93
3559.32	9391.98
3560.29	9422.70
3561.25	9152.37
3562.22	9234.29
3563.18	9246.58
3564.15	9168.76
3565.11	9082.74
3566.07	8996.73
3567.04	9006.97
3568.00	8892.28
3568.96	8951.67
3569.92	8920.95
3570.89	8843.13
3571.85	9203.57
3572.81	8820.60
3573.77	9066.36
3574.73	9066.36
3575.69	8931.19
3576.65	9041.78
3577.61	8953.72
3578.57	8619.90
3579.53	8855.42
3580.49	9066.36
3581.45	9056.12
3582.40	8888.18
3583.36	8853.37
3584.32	9027.45
3585.28	8748.92
3586.23	9049.97
3587.19	8994.68
3588.15	8957.82
3589.10	8656.76
3590.06	8843.13
3591.01	8810.36
3591.97	8920.95
3592.92	8658.81
3593.88	9039.73
3594.83	8736.63
3595.78	8605.56
3596.74	8669.05
3597.69	8558.46
3598.64	8730.49
3599.60	8775.55
3600.55	8705.92
3601.50	8902.52
3602.45	8697.72
3603.40	8734.59
3604.35	8658.81
3605.31	8787.83
3606.26	8632.19
3607.21	8798.07
3608.16	8808.31
3609.10	9060.21
3610.05	8793.98
3611.00	8669.05
3611.95	8740.73
3612.90	8693.63
3613.85	8896.38
3614.79	9162.61
3615.74	8771.45
3616.69	8662.91
3617.63	8626.04
3618.58	8789.88
3619.53	8556.41
3620.47	8566.65
3621.42	8798.07
3622.36	8318.85
3623.31	8384.38
3624.25	8640.38
3625.20	8449.92
3626.14	8378.24
3627.08	8392.58
3628.03	8773.50
3628.97	8824.70
3629.91	8667.00
3630.85	8431.49
3631.80	8683.39
3632.74	8888.18
3633.68	8834.94
3634.62	8769.40
3635.56	8734.59
3636.50	8894.33
3637.44	8650.62
3638.38	8650.62
3639.32	8511.36
3640.26	8464.25
3641.20	8484.73
3642.14	8683.39
3643.08	8671.10
3644.01	8951.67
3644.95	8529.79
3645.89	8660.86
3646.83	8484.73
3647.76	8529.79
3648.70	8476.54
3649.63	8529.79
3650.57	8679.29
3651.51	8800.12
3652.44	8374.14
3653.38	8421.25
3654.31	8353.66
3655.24	8365.95
3656.18	8327.04
3657.11	8638.33
3658.05	8363.90
3658.98	8179.59
3659.91	8466.30
3660.84	8331.14
3661.78	8396.67
3662.71	8415.10
3663.64	8374.14
3664.57	8402.82
3665.50	8120.20
3666.43	8667.00
3667.36	8177.54
3668.29	8195.97
3669.22	8279.94
3670.15	8159.11
3671.08	8435.58
3672.01	7995.27
3672.94	8097.67
3673.86	8165.25
3674.79	8365.95
3675.72	8310.66
3676.65	8542.08
3677.57	8552.32
3678.50	8427.39
3679.43	8359.81
3680.35	8318.85
3681.28	8402.82
3682.20	8136.58
3683.13	8183.68
3684.05	8189.83
3684.98	8206.21
3685.90	7997.32
3686.83	8183.68
3687.75	8456.06
3688.67	8337.28
3689.60	8404.86
3690.52	8404.86
3691.44	8238.98
3692.36	8312.71
3693.28	8277.89
3694.21	8177.54
3695.13	8404.86
3696.05	8720.25
3696.97	8277.89
3697.89	8482.69
3698.81	8529.79
3699.73	8208.26
3700.65	8204.16
3701.57	8480.64
3702.48	8314.75
3703.40	8333.18
3704.32	8515.45
3705.24	8427.39
3706.16	8347.52
3707.07	8484.73
3707.99	8187.78
3708.91	8288.13
3709.82	8464.25
3710.74	8247.17
3711.66	8101.76
3712.57	8419.20
3713.49	8218.50
3714.40	8345.47
3715.31	8503.17
3716.23	8179.59
3717.14	8279.94
3718.06	8542.08
3718.97	8107.91
3719.88	8408.96
3720.80	8324.99
3721.71	9043.83
3722.62	7978.89
3723.53	8312.71
3724.44	8316.80
3725.35	8304.51
3726.26	8148.87
3727.18	7964.55
3728.09	8275.84
3729.00	8298.37
3729.91	8290.18
3730.81	8447.87
3731.72	8370.05
3732.63	7982.98
3733.54	8128.39
3734.45	8230.79
3735.36	8193.92
3736.26	8089.48
3737.17	8144.77
3738.08	8353.66
3738.99	8238.98
3739.89	8136.58
3740.80	8224.64
3741.70	8085.38
3742.61	7821.19
3743.51	8103.81
3744.42	8290.18
3745.32	8335.23
3746.23	8306.56
3747.13	7894.92
3748.04	8251.27
3748.94	8167.30
3749.84	8140.68
3750.74	7933.83
3751.65	7815.05
3752.55	8118.15
3753.45	8183.68
3754.35	8349.57
3755.25	8091.52
3756.16	8267.65
3757.06	8140.68
3757.96	8157.06
3758.86	8019.85
3759.76	7847.82
3760.66	8132.48
3761.55	7919.50
3762.45	7800.71
3763.35	7737.23
3764.25	7567.24
3765.15	8173.44
3766.05	7796.62
3766.94	7569.29
3767.84	7880.58
3768.74	7860.10
3769.63	7917.45
3770.53	7878.54
3771.43	7888.78
3772.32	7907.21
3773.22	7956.36
3774.11	7813.00
3775.01	7753.61
3775.90	7792.52
3776.80	7851.91
3777.69	7526.29
3778.58	7954.31
3779.48	7745.42
3780.37	7849.86
3781.26	7876.49
3782.16	7806.86
3783.05	7829.38
3783.94	7767.95
3784.83	7948.17
3785.72	7853.96
3786.61	8032.13
3787.50	7575.44
3788.39	7993.22
3789.28	7665.55
3790.17	7790.47
3791.06	7810.95
3791.95	7870.34
3792.84	7800.71
3793.73	7806.86
3794.62	7894.92
3795.51	7608.20
3796.39	7692.17
3797.28	7425.93
3798.17	7618.44
3799.06	7534.48
3799.94	7690.12
3800.83	7509.90
3801.71	7509.90
3802.60	7595.92
3803.48	7577.48
3804.37	7497.61
3805.25	7479.18
3806.14	7575.44
3807.02	7788.43
3807.91	7514.00
3808.79	7548.81
3809.67	7831.43
3810.56	7753.61
3811.44	7821.19
3812.32	7890.82
3813.20	7726.99
3814.09	7600.01
3814.97	7495.57
3815.85	7628.68
3816.73	7597.96
3817.61	7700.36
3818.49	7735.18
3819.37	7419.79
3820.25	7522.19
3821.13	7538.57
3822.01	7473.04
3822.89	7708.55
3823.77	7487.37
3824.65	7415.69
3825.52	7569.29
3826.40	7557.00
3827.28	7540.62
3828.16	7405.46
3829.03	7460.75
3829.91	7348.11
3830.79	7346.06
3831.66	7638.92
3832.54	7366.54
3833.41	7573.39
3834.29	7362.45
3835.16	7311.25
3836.04	7518.09
3836.91	7475.09
3837.79	7534.48
3838.66	7403.41
3839.53	7409.55
3840.41	7542.67
3841.28	7704.46
3842.15	7219.09
3843.02	7184.27
3843.90	7370.64
3844.77	7341.97
3845.64	7391.12
3846.51	7253.91
3847.38	7276.43
3848.25	7180.18
3849.12	7088.02
3849.99	7352.21
3850.86	7276.43
3851.73	7219.09
3852.60	7280.53
3853.47	7128.98
3854.34	7106.45
3855.21	7049.11
3856.07	7034.77
3856.94	7071.64
3857.81	7331.73
3858.68	7208.85
3859.54	7206.80
3860.41	7176.08
3861.28	7290.77
3862.14	7135.12
3863.01	7210.90
3863.87	7012.25
3864.74	6811.54
3865.60	6952.85
3866.47	7124.88
3867.33	7022.48
3868.19	6952.85
3869.06	6832.02
3869.92	7163.79
3870.78	6932.37
3871.65	6993.81
3872.51	7118.74
3873.37	7460.75
3874.23	6973.33
3875.10	6793.11
3875.96	6811.54
3876.82	6821.78
3877.68	6973.33
3878.54	6868.89
3879.40	6959.00
3880.26	7106.45
3881.12	6784.92
3881.98	6754.20
3882.84	6936.47
3883.70	6840.22
3884.55	6682.52
3885.41	6864.79
3886.27	6862.74
3887.13	6791.06
3887.99	6770.58
3888.84	6715.29
3889.70	6774.68
3890.56	6754.20
3891.41	6752.15
3892.27	6659.99
3893.12	6707.10
3893.98	6737.82
3894.83	6707.10
3895.69	6694.81
3896.54	6723.48
3897.40	6703.00
3898.25	6424.48
3899.11	6426.53
3899.96	6578.08
3900.81	6631.32
3901.66	6424.48
3902.52	6545.31
3903.37	6487.96
3904.22	6553.50
3905.07	6598.56
3905.92	6530.97
3906.78	6447.01
3907.63	6647.71
