raman   n
-2184.52	-55.30
-2181.51	-55.30
-2178.50	-55.30
-2175.49	79.87
-2172.49	-38.91
-2169.48	313.34
-2166.48	-67.58
-2163.48	65.54
-2160.47	-126.97
-2157.47	163.84
-2154.47	-186.37
-2151.48	145.41
-2148.48	100.35
-2145.49	-59.39
-2142.49	-43.01
-2139.50	51.20
-2136.51	0.00
-2133.52	43.01
-2130.53	143.36
-2127.54	616.44
-2124.55	251.90
-2121.57	851.95
-2118.58	532.47
-2115.60	135.17
-2112.62	659.45
-2109.64	753.65
-2106.66	722.93
-2103.68	358.39
-2100.70	485.37
-2097.73	372.73
-2094.75	653.30
-2091.78	473.08
-2088.81	462.84
-2085.83	282.62
-2082.86	-794.61
-2079.90	393.21
-2076.93	679.93
-2073.96	641.01
-2071.00	636.92
-2068.03	673.78
-2065.07	352.25
-2062.11	598.01
-2059.15	610.29
-2056.19	638.97
-2053.23	530.42
-2050.27	759.80
-2047.32	636.92
-2044.36	851.95
-2041.41	493.56
-2038.46	466.94
-2035.51	335.87
-2032.56	929.78
-2029.61	606.20
-2026.66	864.24
-2023.72	428.03
-2020.77	622.58
-2017.83	663.54
-2014.88	509.94
-2011.94	501.75
-2009.00	299.00
-2006.06	655.35
-2003.13	595.96
-2000.19	274.43
-1997.25	329.72
-1994.32	583.67
-1991.39	458.75
-1988.45	395.26
-1985.52	538.62
-1982.59	446.46
-1979.67	659.45
-1976.74	376.83
-1973.81	765.94
-1970.89	356.35
-1967.96	727.03
-1965.04	325.63
-1962.12	577.53
-1959.20	630.77
-1956.28	532.47
-1953.36	389.11
-1950.45	624.63
-1947.53	540.66
-1944.62	491.51
-1941.70	446.46
-1938.79	311.29
-1935.88	495.61
-1932.97	794.61
-1930.06	442.36
-1927.15	311.29
-1924.25	483.32
-1921.34	169.98
-1918.44	245.76
-1915.54	679.93
-1912.63	370.68
-1909.73	559.10
-1906.83	806.90
-1903.94	389.11
-1901.04	483.32
-1898.14	694.26
-1895.25	655.35
-1892.36	245.76
-1889.46	557.05
-1886.57	399.35
-1883.68	344.06
-1880.79	591.86
-1877.91	569.34
-1875.02	518.14
-1872.13	620.53
-1869.25	366.59
-1866.37	432.12
-1863.48	417.79
-1860.60	770.04
-1857.72	468.98
-1854.84	534.52
-1851.97	239.61
-1849.09	514.04
-1846.22	245.76
-1843.34	608.25
-1840.47	448.51
-1837.60	413.69
-1834.73	518.14
-1831.86	722.93
-1828.99	378.87
-1826.12	387.07
-1823.26	657.40
-1820.39	339.96
-1817.53	819.19
-1814.67	370.68
-1811.80	456.70
-1808.94	544.76
-1806.08	518.14
-1803.23	391.16
-1800.37	124.93
-1797.51	720.88
-1794.66	448.51
-1791.81	69.63
-1788.95	477.18
-1786.10	323.58
-1783.25	329.72
-1780.40	344.06
-1777.56	-317.44
-1774.71	442.36
-1771.86	217.08
-1769.02	380.92
-1766.18	346.11
-1763.33	401.40
-1760.49	348.15
-1757.65	450.55
-1754.81	14.34
-1751.98	243.71
-1749.14	319.48
-1746.30	344.06
-1743.47	397.31
-1740.64	546.81
-1737.81	292.86
-1734.97	415.74
-1732.14	358.39
-1729.32	520.18
-1726.49	712.69
-1723.66	708.60
-1720.84	456.70
-1718.01	604.15
-1715.19	208.89
-1712.37	272.38
-1709.55	301.05
-1706.73	501.75
-1703.91	311.29
-1701.09	167.93
-1698.27	382.97
-1695.46	483.32
-1692.65	382.97
-1689.83	454.65
-1687.02	174.08
-1684.21	325.63
-1681.40	217.08
-1678.59	169.98
-1675.78	202.75
-1672.98	172.03
-1670.17	716.79
-1667.37	577.53
-1664.56	419.83
-1661.76	382.97
-1658.96	366.59
-1656.16	137.21
-1653.36	507.90
-1650.57	454.65
-1647.77	393.21
-1644.97	55.30
-1642.18	978.93
-1639.39	262.14
-1636.60	497.66
-1633.80	575.48
-1631.01	380.92
-1628.23	385.02
-1625.44	395.26
-1622.65	901.11
-1619.87	716.79
-1617.08	247.80
-1614.30	376.83
-1611.52	468.98
-1608.74	325.63
-1605.96	321.53
-1603.18	256.00
-1600.40	432.12
-1597.62	530.42
-1594.85	253.95
-1592.07	460.79
-1589.30	430.07
-1586.53	374.78
-1583.76	268.28
-1580.99	280.57
-1578.22	249.85
-1575.45	577.53
-1572.68	575.48
-1569.92	450.55
-1567.15	108.54
-1564.39	518.14
-1561.63	806.90
-1558.86	604.15
-1556.10	479.22
-1553.34	565.24
-1550.59	483.32
-1547.83	657.40
-1545.07	391.16
-1542.32	135.17
-1539.56	415.74
-1536.81	479.22
-1534.06	339.96
-1531.31	417.79
-1528.56	421.88
-1525.81	331.77
-1523.06	262.14
-1520.32	1292.27
-1517.57	331.77
-1514.83	331.77
-1512.09	638.97
-1509.34	329.72
-1506.60	182.27
-1503.86	348.15
-1501.12	157.69
-1498.39	102.40
-1495.65	354.30
-1492.91	233.47
-1490.18	387.07
-1487.45	290.81
-1484.71	485.37
-1481.98	460.79
-1479.25	221.18
-1476.52	325.63
-1473.80	-49.15
-1471.07	274.43
-1468.34	198.65
-1465.62	264.19
-1462.89	626.68
-1460.17	518.14
-1457.45	546.81
-1454.73	401.40
-1452.01	589.82
-1449.29	456.70
-1446.57	366.59
-1443.86	565.24
-1441.14	497.66
-1438.43	223.23
-1435.71	212.99
-1433.00	417.79
-1430.29	184.32
-1427.58	1730.53
-1424.87	337.91
-1422.16	196.60
-1419.46	288.76
-1416.75	-18.43
-1414.05	272.38
-1411.34	411.64
-1408.64	22.53
-1405.94	294.91
-1403.24	413.69
-1400.54	264.19
-1397.84	1818.60
-1395.14	317.44
-1392.45	569.34
-1389.75	372.73
-1387.06	382.97
-1384.36	180.22
-1381.67	462.84
-1378.98	176.13
-1376.29	485.37
-1373.60	403.45
-1370.91	868.34
-1368.23	385.02
-1365.54	608.25
-1362.86	276.48
-1360.17	468.98
-1357.49	491.51
-1354.81	534.52
-1352.13	43.01
-1349.45	643.06
-1346.77	419.83
-1344.09	655.35
-1341.42	620.53
-1338.74	-108.54
-1336.07	258.04
-1333.39	86.01
-1330.72	485.37
-1328.05	258.04
-1325.38	47.10
-1322.71	243.71
-1320.04	32.77
-1317.37	440.31
-1314.71	423.93
-1312.04	491.51
-1309.38	145.41
-1306.72	851.95
-1304.05	600.05
-1301.39	618.49
-1298.73	196.60
-1296.08	309.24
-1293.42	-14.34
-1290.76	315.39
-1288.10	317.44
-1285.45	374.78
-1282.80	444.41
-1280.14	358.39
-1277.49	471.03
-1274.84	382.97
-1272.19	434.17
-1269.54	352.25
-1266.90	253.95
-1264.25	657.40
-1261.60	342.01
-1258.96	337.91
-1256.32	544.76
-1253.67	417.79
-1251.03	438.27
-1248.39	641.01
-1245.75	497.66
-1243.11	548.86
-1240.48	421.88
-1237.84	417.79
-1235.20	442.36
-1232.57	329.72
-1229.94	616.44
-1227.31	360.44
-1224.67	174.08
-1222.04	262.14
-1219.41	542.71
-1216.79	239.61
-1214.16	440.31
-1211.53	511.99
-1208.91	315.39
-1206.28	219.13
-1203.66	442.36
-1201.04	399.35
-1198.42	507.90
-1195.80	288.76
-1193.18	221.18
-1190.56	444.41
-1187.94	444.41
-1185.33	92.16
-1182.71	223.23
-1180.10	303.10
-1177.49	55.30
-1174.87	256.00
-1172.26	421.88
-1169.65	423.93
-1167.04	530.42
-1164.44	407.55
-1161.83	516.09
-1159.22	217.08
-1156.62	204.80
-1154.01	434.17
-1151.41	243.71
-1148.81	530.42
-1146.21	202.75
-1143.61	593.91
-1141.01	227.32
-1138.41	49.15
-1135.81	139.26
-1133.22	204.80
-1130.62	1333.23
-1128.03	305.15
-1125.44	354.30
-1122.84	260.09
-1120.25	350.20
-1117.66	73.73
-1115.07	331.77
-1112.49	260.09
-1109.90	389.11
-1107.31	299.00
-1104.73	155.65
-1102.14	278.52
-1099.56	258.04
-1096.98	180.22
-1094.40	225.28
-1091.82	425.98
-1089.24	567.29
-1086.66	452.60
-1084.08	307.20
-1081.51	149.50
-1078.93	350.20
-1076.36	352.25
-1073.79	231.42
-1071.21	530.42
-1068.64	331.77
-1066.07	-137.21
-1063.50	251.90
-1060.93	487.42
-1058.37	280.57
-1055.80	415.74
-1053.24	405.50
-1050.67	444.41
-1048.11	632.82
-1045.55	372.73
-1042.99	190.46
-1040.42	256.00
-1037.87	511.99
-1035.31	272.38
-1032.75	387.07
-1030.19	417.79
-1027.64	399.35
-1025.08	462.84
-1022.53	75.77
-1019.98	0.00
-1017.43	147.45
-1014.88	135.17
-1012.33	120.83
-1009.78	155.65
-1007.23	180.22
-1004.68	239.61
-1002.14	430.07
-999.59	112.64
-997.05	276.48
-994.51	233.47
-991.96	174.08
-989.42	360.44
-986.88	233.47
-984.34	-96.25
-981.81	372.73
-979.27	90.11
-976.73	628.73
-974.20	-108.54
-971.66	135.17
-969.13	67.58
-966.60	354.30
-964.07	428.03
-961.54	79.87
-959.01	67.58
-956.48	337.91
-953.95	555.00
-951.43	401.40
-948.90	253.95
-946.38	145.41
-943.85	10.24
-941.33	319.48
-938.81	296.96
-936.29	317.44
-933.77	397.31
-931.25	518.14
-928.73	274.43
-926.22	501.75
-923.70	309.24
-921.19	90.11
-918.67	-102.40
-916.16	356.35
-913.65	385.02
-911.14	165.89
-908.63	337.91
-906.12	-14.34
-903.61	425.98
-901.10	485.37
-898.59	432.12
-896.09	405.50
-893.59	55.30
-891.08	417.79
-888.58	430.07
-886.08	587.77
-883.58	100.35
-881.08	507.90
-878.58	636.92
-876.08	526.33
-873.58	524.28
-871.09	172.03
-868.59	511.99
-866.10	227.32
-863.61	176.13
-861.12	294.91
-858.62	337.91
-856.13	303.10
-853.64	284.67
-851.16	272.38
-848.67	133.12
-846.18	301.05
-843.70	425.98
-841.21	145.41
-838.73	274.43
-836.25	421.88
-833.77	102.40
-831.28	299.00
-828.81	319.48
-826.33	210.94
-823.85	239.61
-821.37	139.26
-818.90	147.45
-816.42	317.44
-813.95	393.21
-811.47	466.94
-809.00	-1216.49
-806.53	143.36
-804.06	350.20
-801.59	282.62
-799.12	198.65
-796.65	655.35
-794.19	86.01
-791.72	6.14
-789.26	628.73
-786.79	129.02
-784.33	-16.38
-781.87	159.74
-779.41	59.39
-776.95	225.28
-774.49	206.84
-772.03	63.49
-769.57	303.10
-767.12	-43.01
-764.66	348.15
-762.21	598.01
-759.75	425.98
-757.30	118.78
-754.85	360.44
-752.40	8.19
-749.95	40.96
-747.50	419.83
-745.05	520.18
-742.60	204.80
-740.16	59.39
-737.71	188.41
-735.27	251.90
-732.82	284.67
-730.38	268.28
-727.94	-4.10
-725.50	145.41
-723.06	149.50
-720.62	397.31
-718.18	227.32
-715.74	415.74
-713.31	157.69
-710.87	280.57
-708.44	172.03
-706.01	245.76
-703.57	98.30
-701.14	217.08
-698.71	159.74
-696.28	423.93
-693.85	215.04
-691.42	391.16
-689.00	126.97
-686.57	219.13
-684.15	208.89
-681.72	272.38
-679.30	233.47
-676.88	225.28
-674.45	215.04
-672.03	231.42
-669.61	382.97
-667.20	-77.82
-664.78	6.14
-662.36	-139.26
-659.94	419.83
-657.53	337.91
-655.12	229.37
-652.70	442.36
-650.29	290.81
-647.88	321.53
-645.47	251.90
-643.06	419.83
-640.65	155.65
-638.24	167.93
-635.83	208.89
-633.43	354.30
-631.02	299.00
-628.62	632.82
-626.22	139.26
-623.81	-2058.21
-621.41	241.66
-619.01	-36.86
-616.61	294.91
-614.21	329.72
-611.81	243.71
-609.42	208.89
-607.02	1695.72
-604.63	124.93
-602.23	131.07
-599.84	339.96
-597.45	268.28
-595.05	-32.77
-592.66	106.49
-590.27	75.77
-587.88	536.57
-585.50	391.16
-583.11	303.10
-580.72	278.52
-578.34	368.63
-575.95	161.79
-573.57	378.87
-571.19	28.67
-568.80	249.85
-566.42	385.02
-564.04	196.60
-561.66	317.44
-559.29	235.52
-556.91	167.93
-554.53	204.80
-552.16	221.18
-549.78	151.55
-547.41	190.46
-545.03	552.95
-542.66	180.22
-540.29	215.04
-537.92	219.13
-535.55	294.91
-533.18	409.59
-530.81	270.33
-528.45	690.17
-526.08	147.45
-523.72	518.14
-521.35	114.69
-518.99	77.82
-516.63	96.25
-514.27	350.20
-511.90	233.47
-509.54	434.17
-507.19	296.96
-504.83	552.95
-502.47	212.99
-500.11	239.61
-497.76	473.08
-495.40	473.08
-493.05	385.02
-490.70	495.61
-488.35	233.47
-486.00	303.10
-483.65	544.76
-481.30	460.79
-478.95	442.36
-476.60	550.90
-474.25	325.63
-471.91	311.29
-469.56	331.77
-467.22	522.23
-464.88	481.27
-462.53	434.17
-460.19	419.83
-457.85	634.87
-455.51	600.05
-453.17	-5302.19
-450.84	552.95
-448.50	647.16
-446.16	376.83
-443.83	741.36
-441.49	663.54
-439.16	632.82
-436.83	653.30
-434.50	870.39
-432.16	743.41
-429.83	630.77
-427.50	716.79
-425.18	663.54
-422.85	917.49
-420.52	647.16
-418.20	372.73
-415.87	397.31
-413.55	499.70
-411.22	833.52
-408.90	221.18
-406.58	272.38
-404.26	143.36
-401.94	335.87
-399.62	497.66
-397.30	573.43
-394.99	370.68
-392.67	661.49
-390.35	575.48
-388.04	450.55
-385.73	616.44
-383.41	241.66
-381.10	413.69
-378.79	229.37
-376.48	430.07
-374.17	471.03
-371.86	653.30
-369.55	454.65
-367.25	573.43
-364.94	409.59
-362.64	419.83
-360.33	415.74
-358.03	266.24
-355.73	487.42
-353.42	544.76
-351.12	788.47
-348.82	378.87
-346.52	393.21
-344.23	239.61
-341.93	542.71
-339.63	503.80
-337.34	401.40
-335.04	198.65
-332.75	450.55
-330.45	352.25
-328.16	403.45
-325.87	370.68
-323.58	700.41
-321.29	495.61
-319.00	425.98
-316.71	102.40
-314.42	174.08
-312.14	245.76
-309.85	159.74
-307.57	149.50
-305.28	10.24
-303.00	8.19
-300.72	458.74
-298.44	182.27
-296.16	223.23
-293.88	165.89
-291.60	77.82
-289.32	522.23
-287.04	124.93
-284.77	385.02
-282.49	16.38
-280.22	-106.49
-277.94	385.02
-275.67	108.54
-273.40	432.12
-271.13	245.76
-268.85	296.96
-266.59	-319.48
-264.32	-36.86
-262.05	198.65
-259.78	53.25
-257.51	145.41
-255.25	327.67
-252.98	198.65
-250.72	90.11
-248.46	143.36
-246.20	26.62
-243.93	24.58
-241.67	-380.92
-239.41	137.21
-237.16	81.92
-234.90	32.77
-232.64	-192.51
-230.38	397.31
-228.13	176.13
-225.87	77.82
-223.62	83.97
-221.37	411.64
-219.11	333.82
-216.86	188.41
-214.61	86.01
-212.36	106.49
-210.11	315.39
-207.87	135.17
-205.62	-206.84
-203.37	153.60
-201.13	434.17
-198.88	53.25
-196.64	-67.58
-194.39	120.83
-192.15	223.23
-189.91	86.01
-187.67	419.83
-185.43	294.91
-183.19	126.97
-180.95	4.10
-178.72	120.83
-176.48	120.83
-174.24	47.10
-172.01	208.89
-169.77	-167.93
-167.54	335.87
-165.31	577.53
-163.08	-28.67
-160.85	81.92
-158.62	88.06
-156.39	563.19
-154.16	86.01
-151.93	309.24
-149.70	10.24
-147.48	198.65
-145.25	231.42
-143.03	415.74
-140.81	-67.58
-138.58	-32.77
-136.36	165.89
-134.14	-6.14
-131.92	466.94
-129.70	411.64
-127.48	88.06
-125.26	180.22
-123.05	8.19
-120.83	79.87
-118.62	401.40
-116.40	106.49
-114.19	358.39
-111.97	-16.38
-109.76	131.07
-107.55	-73.73
-105.34	51.20
-103.13	98.30
-100.92	131.07
-98.71	206.84
-96.51	335.87
-94.30	237.56
-92.09	241.66
-89.89	129.02
-87.69	260.09
-85.48	403.45
-83.28	133.12
-81.08	460.79
-78.88	448.51
-76.68	374.78
-74.48	65.54
-72.28	260.09
-70.08	444.41
-67.88	344.06
-65.69	327.67
-63.49	462.84
-61.30	419.83
-59.11	331.77
-56.91	83.97
-54.72	104.45
-52.53	258.04
-50.34	565.24
-48.15	366.59
-45.96	468.98
-43.77	315.39
-41.59	610.29
-39.40	28.67
-37.21	262.14
-35.03	294.91
-32.84	460.79
-30.66	436.22
-28.48	579.58
-26.30	739.32
-24.12	784.37
-21.94	1632.23
-19.76	2508.76
-17.58	4986.80
-15.40	8988.53
-13.22	17743.60
-11.05	28218.96
-8.87	39222.70
-6.70	47043.89
-4.52	53744.84
-2.35	40297.88
-0.18	54781.12
1.99	51766.51
4.16	51328.24
6.33	45413.71
8.50	38526.39
10.67	29013.57
12.84	24047.25
15.00	20930.24
17.17	18636.52
19.33	15357.72
21.50	12001.10
23.66	9367.41
25.83	6989.72
27.99	4378.56
30.15	2811.86
32.31	1710.05
34.47	1110.00
36.63	1064.94
38.79	987.12
40.94	380.92
43.10	329.72
45.25	358.39
47.41	346.11
49.56	458.74
51.72	299.00
53.87	227.32
56.02	514.04
58.17	196.60
60.32	-36.86
62.47	10.24
64.62	45.06
66.77	153.60
68.92	163.84
71.06	415.74
73.21	235.52
75.35	143.36
77.50	376.83
79.64	661.49
81.78	-184.32
83.92	227.32
86.06	163.84
88.20	307.20
90.34	432.12
92.48	382.97
94.62	223.23
96.76	45.06
98.89	262.14
101.03	262.14
103.16	413.69
105.30	319.48
107.43	661.49
109.56	-8.19
111.69	264.19
113.82	251.90
115.95	284.67
118.08	22.53
120.21	499.70
122.34	606.20
124.47	-75.77
126.59	256.00
128.72	169.98
130.84	440.31
132.97	108.54
135.09	-40.96
137.21	317.44
139.33	6.14
141.45	165.89
143.57	53.25
145.69	133.12
147.81	374.78
149.93	729.08
152.05	120.83
154.16	581.62
156.28	208.89
158.39	167.93
160.51	294.91
162.62	733.17
164.73	407.55
166.85	489.46
168.96	286.72
171.07	225.28
173.18	419.83
175.28	307.20
177.39	-30.72
179.50	120.83
181.61	507.90
183.71	573.43
185.82	387.07
187.92	172.03
190.02	442.36
192.13	172.03
194.23	143.36
196.33	299.00
198.43	352.25
200.53	339.96
202.63	464.89
204.72	-55.30
206.82	264.19
208.92	32.77
211.01	278.52
213.11	6.14
215.20	262.14
217.30	145.41
219.39	296.96
221.48	284.67
223.57	114.69
225.66	544.76
227.75	-67.58
229.84	393.21
231.93	133.12
234.02	159.74
236.10	319.48
238.19	163.84
240.28	100.35
242.36	323.58
244.44	378.87
246.53	311.29
248.61	479.22
250.69	446.46
252.77	800.76
254.85	960.50
256.93	813.04
259.01	888.82
261.09	1234.93
263.16	1134.57
265.24	1183.73
267.32	1560.55
269.39	1826.79
271.46	1677.29
273.54	2082.78
275.61	1753.06
277.68	2242.53
279.75	2267.10
281.82	2301.92
283.89	2351.07
285.96	2445.27
288.03	2367.45
290.10	2506.71
292.16	2447.32
294.23	2260.96
296.29	2500.57
298.36	2596.82
300.42	1984.48
302.49	2359.26
304.55	2486.23
306.61	2471.90
308.67	1232.88
310.73	2346.97
312.79	2154.46
314.85	2269.15
316.90	2234.33
318.96	2349.02
321.02	2408.41
323.07	2103.26
325.13	2220.00
327.18	1959.91
329.24	2199.52
331.29	2168.80
333.34	2281.44
335.39	2160.61
337.44	2052.06
339.49	4577.21
341.54	2353.12
343.59	2064.35
345.64	2349.02
347.68	2066.40
349.73	2123.74
351.77	1888.23
353.82	2111.46
355.86	2056.16
357.90	2252.77
359.95	2269.15
361.99	2316.25
364.03	2494.43
366.07	2277.34
368.11	1974.24
370.15	2197.47
372.19	2170.85
374.22	2654.17
376.26	2146.27
378.29	2432.99
380.33	2066.40
382.36	2361.31
384.40	2088.93
386.43	8955.77
388.46	2289.63
390.49	2230.24
392.52	2275.29
394.55	2404.32
396.58	2457.56
398.61	2451.42
400.64	2635.74
402.67	2666.46
404.69	2598.87
406.72	2742.23
408.74	2824.15
410.77	3164.11
412.79	2861.01
414.81	2936.79
416.84	3381.20
418.86	3438.54
420.88	3485.64
422.90	3645.38
424.92	4007.87
426.94	4241.34
428.95	4282.30
430.97	4622.27
432.99	4546.49
435.00	4591.55
437.02	4925.36
439.03	4949.94
441.04	4587.45
443.06	4687.80
445.07	4181.95
447.08	3915.72
449.09	3844.04
451.10	3921.86
453.11	3510.22
455.12	3600.33
457.13	3403.72
459.13	3133.39
461.14	3176.40
463.14	2957.27
465.15	3018.71
467.15	2791.38
469.16	2660.31
471.16	2643.93
473.16	2723.80
475.16	2580.44
477.16	2672.60
479.16	2576.34
481.16	2983.89
483.16	2648.02
485.16	2723.80
487.15	2588.63
489.15	2621.40
491.15	2437.08
493.14	2420.70
495.14	2463.71
497.13	2234.33
499.12	2383.84
501.11	2383.84
503.11	2361.31
505.10	2355.16
507.09	2293.73
509.07	2154.46
511.06	2078.69
513.05	2023.39
515.04	2179.04
517.02	2121.70
519.01	2035.68
521.00	1920.99
522.98	2224.09
524.96	2525.15
526.95	2344.92
528.93	2099.17
530.91	2179.04
532.89	2467.80
534.87	2211.81
536.85	1208.30
538.83	2064.35
540.81	2338.78
542.78	2242.53
544.76	2093.02
546.74	2207.71
548.71	2232.29
550.69	2168.80
552.66	2109.41
554.63	2299.87
556.60	2191.33
558.58	2054.11
560.55	1982.43
562.52	2385.88
564.49	2105.31
566.46	2324.44
568.42	2377.69
570.39	2078.69
572.36	2226.14
574.32	2045.92
576.29	2394.08
578.25	2201.57
580.22	2045.92
582.18	2039.78
584.14	2230.24
586.11	2187.23
588.07	2236.38
590.03	2123.74
591.99	1867.75
593.95	1978.34
595.90	2291.68
597.86	2185.18
599.82	2011.11
601.78	1865.70
603.73	2154.46
605.69	1968.10
607.64	2285.53
609.59	1947.62
611.55	1806.31
613.50	2043.87
615.45	1970.15
617.40	1845.22
619.35	2400.22
621.30	1964.00
623.25	2250.72
625.20	2150.37
627.15	2439.13
629.09	2289.63
631.04	1918.95
632.98	2129.89
634.93	1945.57
636.87	1920.99
638.82	2099.17
640.76	2066.40
642.70	2166.75
644.64	2162.66
646.58	1955.81
648.52	2406.36
650.46	2140.13
652.40	2019.30
654.34	1822.69
656.27	2111.46
658.21	2123.74
660.15	2105.31
662.08	2314.20
664.02	2021.35
665.95	2004.96
667.88	1970.15
669.82	1996.77
671.75	2019.30
673.68	1966.05
675.61	2160.61
677.54	2236.38
679.47	2031.58
681.40	2101.22
683.32	2086.88
685.25	1953.76
687.18	1914.85
689.10	1984.48
691.03	1826.79
692.95	1982.43
694.87	2004.96
696.80	1908.71
698.72	1949.67
700.64	2052.06
702.56	2123.74
704.48	1685.48
706.40	2189.28
708.32	2217.95
710.24	2000.87
712.16	1843.17
714.07	2363.36
715.99	2160.61
717.90	2080.74
719.82	2072.54
721.73	2072.54
723.65	2082.78
725.56	2142.18
727.47	1966.05
729.38	2172.89
731.29	2142.18
733.20	2004.96
735.11	1957.86
737.02	1994.72
738.93	2150.37
740.84	2160.61
742.74	2011.11
744.65	1804.26
746.55	1949.67
748.46	2043.87
750.36	2330.59
752.27	1828.84
754.17	2176.99
756.07	2052.06
757.97	2179.04
759.87	2072.54
761.77	1972.19
763.67	2389.98
765.57	2035.68
767.47	2252.77
769.37	2101.22
771.26	2226.14
773.16	1964.00
775.06	2353.12
776.95	1972.19
778.84	2273.25
780.74	1929.19
782.63	2176.99
784.52	2070.50
786.41	2250.72
788.30	2224.09
790.19	2303.96
792.08	2285.53
793.97	2195.42
795.86	2138.08
797.75	2320.35
799.63	2308.06
801.52	2211.81
803.41	2336.73
805.29	2428.89
807.18	2260.96
809.06	2295.77
810.94	2557.91
812.82	2369.50
814.70	2426.84
816.59	2418.65
818.47	2402.27
820.35	2250.72
822.22	2435.03
824.10	2672.60
825.98	2244.57
827.86	2283.49
829.73	2725.85
831.61	2582.49
833.48	2496.47
835.36	2787.29
837.23	2609.11
839.10	2715.61
840.98	2715.61
842.85	2996.18
844.72	2879.44
846.59	2815.96
848.46	3047.38
850.33	3180.50
852.20	3225.55
854.06	3831.75
855.93	3735.49
857.80	4284.35
859.66	4538.30
861.53	5502.89
863.39	6182.82
865.26	7724.94
867.12	9033.59
868.98	11874.12
870.84	14227.24
872.71	16570.12
874.57	18554.60
876.43	21216.96
878.29	22869.67
880.14	24282.77
882.00	23809.68
883.86	22759.08
885.72	22353.58
887.57	18620.13
889.43	18290.41
891.28	15623.95
893.14	13680.43
894.99	12480.32
896.84	10352.48
898.69	8683.39
900.55	7507.85
902.40	6420.38
904.25	5687.21
906.10	4870.07
907.95	4833.21
909.79	4040.64
911.64	3665.86
913.49	3413.96
915.34	3098.58
917.18	2787.29
919.03	2828.24
920.87	2748.37
922.71	2721.75
924.56	2572.25
926.40	2375.64
928.24	2684.89
930.08	2246.62
931.92	2344.92
933.76	2383.84
935.60	2349.02
937.44	2562.01
939.28	2013.15
941.12	2564.06
942.95	2232.29
944.79	2119.65
946.62	2131.94
948.46	2058.21
950.29	1978.34
952.13	1902.56
953.96	1920.99
955.79	1820.64
957.62	2228.19
959.46	1957.86
961.29	2152.42
963.12	1916.90
964.94	2138.08
966.77	2136.03
968.60	1974.24
970.43	1722.34
972.25	2353.12
974.08	2007.01
975.91	2013.15
977.73	1763.30
979.55	1949.67
981.38	1970.15
983.20	2084.83
985.02	2062.30
986.84	2336.73
988.66	2299.87
990.49	2205.66
992.30	1986.53
994.12	2303.96
995.94	1882.08
997.76	2287.58
999.58	2187.23
1001.39	2353.12
1003.21	2385.88
1005.02	2676.70
1006.84	2351.07
1008.65	2635.74
1010.47	2484.19
1012.28	2611.16
1014.09	2586.58
1015.90	2764.76
1017.71	2908.12
1019.52	3198.93
1021.33	1867.75
1023.14	3241.93
1024.95	3121.10
1026.76	2940.88
1028.56	3653.58
1030.37	3991.49
1032.18	4308.93
1033.98	4609.98
1035.79	5191.60
1037.59	5459.88
1039.39	5982.12
1041.20	6438.81
1043.00	6797.21
1044.80	6928.28
1046.60	7673.74
1048.40	7733.13
1050.20	7628.68
1052.00	7788.43
1053.80	7120.79
1055.59	7258.00
1057.39	7159.70
1059.19	6868.89
1060.98	6315.94
1062.78	6274.98
1064.57	6494.11
1066.37	5808.04
1068.16	6449.05
1069.95	6371.23
1071.75	6723.48
1073.54	7137.17
1075.33	7444.37
1077.12	7557.00
1078.91	7968.65
1080.70	7948.17
1082.48	9582.45
1084.27	9369.46
1086.06	9901.93
1087.85	9510.77
1089.63	9506.67
1091.42	10157.93
1093.20	9641.84
1094.99	9002.87
1096.77	8863.61
1098.55	8580.99
1100.33	7581.58
1102.12	7194.51
1103.90	6672.28
1105.68	6221.73
1107.46	5572.52
1109.24	5332.91
1111.01	5177.26
1112.79	4831.16
1114.57	4691.90
1116.35	4259.78
1118.12	4558.78
1119.90	4116.42
1121.67	3721.16
1123.45	3663.82
1125.22	3710.92
1126.99	3651.53
1128.77	3721.16
1130.54	3493.83
1132.31	3413.96
1134.08	3450.83
1135.85	3280.85
1137.62	3321.81
1139.39	3045.33
1141.15	2662.36
1142.92	2658.26
1144.69	2740.18
1146.46	2318.30
1148.22	2568.15
1149.99	2447.32
1151.75	2381.79
1153.51	2441.18
1155.28	2215.90
1157.04	2271.20
1158.80	2435.03
1160.56	2326.49
1162.32	2228.19
1164.08	2275.29
1165.84	2043.87
1167.60	2398.17
1169.36	2299.87
1171.12	2174.94
1172.88	1972.19
1174.63	2011.11
1176.39	2353.12
1178.14	2007.01
1179.90	2181.09
1181.65	2189.28
1183.41	2093.02
1185.16	2144.22
1186.91	2445.27
1188.66	2090.98
1190.41	1976.29
1192.16	1947.62
1193.91	2021.35
1195.66	1937.38
1197.41	1886.18
1199.16	1972.19
1200.91	1906.66
1202.66	1959.91
1204.40	1925.09
1206.15	1931.23
1207.89	1755.11
1209.64	1927.14
1211.38	1914.85
1213.12	1830.88
1214.87	1605.61
1216.61	1808.36
1218.35	1830.88
1220.09	2039.78
1221.83	2142.18
1223.57	1877.99
1225.31	1746.92
1227.05	2238.43
1228.79	1920.99
1230.52	2248.67
1232.26	2140.13
1234.00	2174.94
1235.73	2152.42
1237.47	2029.54
1239.20	2179.04
1240.94	2136.03
1242.67	2269.15
1244.40	2021.35
1246.13	2277.34
1247.86	2252.77
1249.60	2547.67
1251.33	2901.97
1253.06	2486.23
1254.78	2674.65
1256.51	2961.36
1258.24	3041.23
1259.97	2881.49
1261.69	2998.23
1263.42	3340.24
1265.15	3286.99
1266.87	3880.90
1268.59	3729.35
1270.32	4186.05
1272.04	4218.82
1273.76	4296.64
1275.49	4440.00
1277.21	4450.24
1278.93	4749.24
1280.65	4646.84
1282.37	4329.41
1284.09	4331.45
1285.81	4347.84
1287.52	4208.58
1289.24	3815.37
1290.96	3825.61
1292.67	3258.32
1294.39	3174.35
1296.10	3246.03
1297.82	2947.03
1299.53	2820.05
1301.24	2818.00
1302.96	3184.59
1304.67	2729.94
1306.38	2713.56
1308.09	2748.37
1309.80	2330.59
1311.51	2627.54
1313.22	2459.61
1314.93	2242.53
1316.64	2562.01
1318.34	2353.12
1320.05	2326.49
1321.75	1982.43
1323.46	2465.75
1325.17	2435.03
1326.87	2303.96
1328.57	2195.42
1330.28	2107.36
1331.98	2504.67
1333.68	2379.74
1335.38	2301.92
1337.08	2097.12
1338.78	2316.25
1340.48	2371.55
1342.18	2279.39
1343.88	2394.08
1345.58	2117.60
1347.28	2340.83
1348.97	2164.70
1350.67	2562.01
1352.36	2205.66
1354.06	2856.92
1355.75	2439.13
1357.45	2351.07
1359.14	2457.56
1360.83	2342.88
1362.53	2607.06
1364.22	2533.34
1365.91	2531.29
1367.60	2578.39
1369.29	2584.54
1370.98	2506.71
1372.67	2887.64
1374.35	2523.10
1376.04	2764.76
1377.73	2738.13
1379.41	2910.16
1381.10	2748.37
1382.79	3313.61
1384.47	3043.28
1386.15	3489.74
1387.84	3346.38
1389.52	3012.56
1391.20	3176.40
1392.88	2944.98
1394.57	3352.52
1396.25	3147.73
1397.93	3160.02
1399.61	3375.05
1401.28	3325.90
1402.96	3342.28
1404.64	3585.99
1406.32	3659.72
1407.99	3545.03
1409.67	3821.51
1411.35	3684.30
1413.02	3667.91
1414.70	3882.95
1416.37	4081.60
1418.04	3913.67
1419.71	3876.80
1421.39	3950.53
1423.06	4300.73
1424.73	4022.21
1426.40	4276.16
1428.07	4458.43
1429.74	4485.05
1431.41	4757.43
1433.08	4665.27
1434.74	5128.11
1436.41	5562.28
1438.08	5617.58
1439.74	5971.88
1441.41	6311.84
1443.07	6999.96
1444.74	7737.23
1446.40	8662.91
1448.06	8683.39
1449.72	9291.63
1451.39	9785.19
1453.05	10594.14
1454.71	10362.72
1456.37	10399.59
1458.03	9803.63
1459.69	10149.73
1461.35	9361.27
1463.00	9078.65
1464.66	8314.75
1466.32	7296.91
1467.97	7063.44
1469.63	6627.23
1471.28	6698.91
1472.94	5762.98
1474.59	6080.42
1476.25	5543.85
1477.90	5609.39
1479.55	5715.88
1481.20	5427.12
1482.85	5185.46
1484.50	1738.73
1486.15	4790.20
1487.80	4890.55
1489.45	4517.82
1491.10	4667.32
1492.75	4423.61
1494.40	4216.77
1496.04	4233.15
1497.69	3932.10
1499.33	3629.00
1500.98	3629.00
1502.62	3018.71
1504.27	3305.42
1505.91	3157.97
1507.55	3358.67
1509.19	2727.89
1510.84	2641.88
1512.48	3024.85
1514.12	2621.40
1515.76	2451.42
1517.40	2852.82
1519.04	2607.06
1520.67	2729.94
1522.31	2596.82
1523.95	2084.83
1525.59	2365.40
1527.22	2547.67
1528.86	2187.23
1530.49	2461.66
1532.13	2256.86
1533.76	2119.65
1535.39	2412.51
1537.03	-3876.80
1538.66	2258.91
1540.29	2105.31
1541.92	2267.10
1543.55	2267.10
1545.18	2256.86
1546.81	1923.04
1548.44	2267.10
1550.07	2398.17
1551.70	2269.15
1553.32	2260.96
1554.95	1925.09
1556.58	1853.41
1558.20	2183.13
1559.83	1726.44
1561.45	1822.69
1563.07	1851.36
1564.70	1787.88
1566.32	1837.03
1567.94	1933.28
1569.56	1617.90
1571.19	2090.98
1572.81	2072.54
1574.43	1998.82
1576.05	1892.32
1577.66	1796.07
1579.28	1720.29
1580.90	1517.54
1582.52	962.55
1584.14	1970.15
1585.75	2185.18
1587.37	1978.34
1588.98	1970.15
1590.60	2058.21
1592.21	1697.77
1593.82	1640.42
1595.44	1587.18
1597.05	1521.64
1598.66	1851.36
1600.27	1708.01
1601.88	1472.49
1603.49	17702.64
1605.10	1908.71
1606.71	2676.70
1608.32	1646.57
1609.93	1998.82
1611.54	1841.12
1613.14	1916.90
1614.75	1730.53
1616.36	1843.17
1617.96	2009.06
1619.57	1959.91
1621.17	1574.89
1622.77	1597.42
1624.38	1789.92
1625.98	1869.80
1627.58	1689.57
1629.18	1927.14
1630.78	1701.86
1632.38	1775.59
1633.98	1902.56
1635.58	1865.70
1637.18	2002.91
1638.78	2019.30
1640.38	2009.06
1641.98	1783.78
1643.57	2287.58
1645.17	1886.18
1646.76	1894.37
1648.36	1527.78
1649.95	1683.43
1651.55	1640.42
1653.14	1662.95
1654.73	1906.66
1656.33	1945.57
1657.92	1947.62
1659.51	1648.61
1661.10	1851.36
1662.69	1736.68
1664.28	1824.74
1665.87	1691.62
1667.46	1697.77
1669.05	1804.26
1670.63	1695.72
1672.22	1890.28
1673.81	1646.57
1675.39	1435.63
1676.98	1808.36
1678.56	1443.82
1680.15	1892.32
1681.73	1744.87
1683.31	1585.13
1684.90	1402.86
1686.48	1671.14
1688.06	1654.76
1689.64	1654.76
1691.22	1329.13
1692.80	1562.60
1694.38	1273.84
1695.96	1794.02
1697.54	1941.47
1699.12	1484.78
1700.69	1648.61
1702.27	1478.63
1703.85	1486.83
1705.42	1480.68
1707.00	1587.18
1708.57	1568.74
1710.15	1834.98
1711.72	1404.91
1713.29	1521.64
1714.87	1417.19
1716.44	1325.04
1718.01	1482.73
1719.58	1452.01
1721.15	1540.07
1722.72	1654.76
1724.29	1406.95
1725.86	1322.99
1727.43	1685.48
1729.00	1982.43
1730.56	1492.97
1732.13	1294.32
1733.70	1198.06
1735.26	1482.73
1736.83	1515.50
1738.39	1339.37
1739.96	1556.46
1741.52	1427.43
1743.08	1341.42
1744.65	1042.42
1746.21	1349.61
1747.77	1595.37
1749.33	1261.55
1750.89	1003.50
1752.45	1380.33
1754.01	1105.90
1755.57	1189.87
1757.13	1255.40
1758.69	1327.08
1760.24	1220.59
1761.80	1316.84
1763.36	1193.97
1764.91	1087.47
1766.47	1173.49
1768.02	1167.34
1769.58	1220.59
1771.13	1366.00
1772.68	1531.88
1774.24	1556.46
1775.79	1081.33
1777.34	1372.14
1778.89	1273.84
1780.44	1132.53
1781.99	1093.62
1783.54	1107.95
1785.09	1308.65
1786.64	1071.09
1788.19	892.91
1789.73	1044.46
1791.28	1331.18
1792.83	1202.16
1794.37	1193.97
1795.92	1251.31
1797.46	1071.09
1799.01	1351.66
1800.55	1236.97
1802.09	1167.34
1803.64	1359.85
1805.18	1208.30
1806.72	1034.22
1808.26	1140.72
1809.80	1269.74
1811.34	1198.06
1812.88	1023.98
1814.42	1150.96
1815.96	1148.91
1817.50	1275.88
1819.04	1212.40
1820.57	794.61
1822.11	1460.20
1823.65	1308.65
1825.18	1226.73
1826.72	1253.36
1828.25	1118.19
1829.78	1155.05
1831.32	1017.84
1832.85	1251.31
1834.38	1042.42
1835.92	1230.83
1837.45	1040.37
1838.98	1056.75
1840.51	1298.41
1842.04	1130.48
1843.57	1222.64
1845.10	1366.00
1846.62	1239.02
1848.15	915.44
1849.68	1124.33
1851.21	1587.18
1852.73	1136.62
1854.26	1210.35
1855.78	1226.73
1857.31	1150.96
1858.83	1060.85
1860.36	1038.32
1861.88	976.88
1863.40	1435.63
1864.92	1198.06
1866.45	1288.17
1867.97	989.17
1869.49	1312.75
1871.01	899.06
1872.53	1341.42
1874.05	1322.99
1875.57	1359.85
1877.08	1185.77
1878.60	1230.83
1880.12	1218.54
1881.64	1306.60
1883.15	987.12
1884.67	1103.86
1886.18	1355.76
1887.70	980.98
1889.21	1075.18
1890.72	1298.41
1892.24	1241.07
1893.75	929.78
1895.26	1259.50
1896.77	911.35
1898.28	1116.14
1899.79	1259.50
1901.30	1212.40
1902.81	1110.00
1904.32	993.26
1905.83	1044.46
1907.34	1069.04
1908.85	1325.04
1910.35	1062.90
1911.86	1157.10
1913.37	1175.53
1914.87	1161.20
1916.38	1087.47
1917.88	1310.70
1919.39	1150.96
1920.89	1261.55
1922.39	1048.56
1923.89	1038.32
1925.40	1290.22
1926.90	1253.36
1928.40	952.31
1929.90	1224.69
1931.40	1103.86
1932.90	1220.59
1934.40	1138.67
1935.90	1069.04
1937.39	1040.37
1938.89	1206.25
1940.39	1263.60
1941.89	1177.58
1943.38	1245.17
1944.88	985.07
1946.37	1026.03
1947.87	1290.22
1949.36	1083.38
1950.85	995.31
1952.35	1030.13
1953.84	856.05
1955.33	1157.10
1956.82	1226.73
1958.31	1142.77
1959.80	1325.04
1961.29	1028.08
1962.78	1023.98
1964.27	1013.74
1965.76	1069.04
1967.25	901.11
1968.74	1306.60
1970.22	1259.50
1971.71	1087.47
1973.20	942.07
1974.68	1038.32
1976.17	716.79
1977.65	1177.58
1979.14	1157.10
1980.62	1054.70
1982.10	1216.49
1983.58	1210.35
1985.07	1036.27
1986.55	1103.86
1988.03	1884.13
1989.51	1208.30
1990.99	1026.03
1992.47	1034.22
1993.95	1157.10
1995.43	950.26
1996.91	1015.79
1998.38	1474.54
1999.86	1333.23
2001.34	1208.30
2002.81	1114.10
2004.29	985.07
2005.76	1322.99
2007.24	1177.58
2008.71	886.77
2010.19	1030.13
2011.66	1239.02
2013.13	1107.95
2014.60	1267.69
2016.08	958.45
2017.55	954.35
2019.02	1185.77
2020.49	1148.91
2021.96	1052.66
2023.43	1130.48
2024.90	1001.46
2026.36	1017.84
2027.83	700.41
2029.30	974.83
2030.77	946.16
2032.23	1374.19
2033.70	958.45
2035.16	1032.18
2036.63	1058.80
2038.09	1112.05
2039.56	1003.50
2041.02	956.40
2042.48	1193.97
2043.95	1089.52
2045.41	1087.47
2046.87	1023.98
2048.33	888.82
2049.79	909.30
2051.25	987.12
2052.71	1169.39
2054.17	1134.57
2055.63	976.88
2057.09	1081.33
2058.54	884.72
2060.00	995.31
2061.46	1243.12
2062.91	1284.08
2064.37	1128.43
2065.82	1073.14
2067.28	1193.97
2068.73	1032.18
2070.19	1093.62
2071.64	1132.53
2073.09	1058.80
2074.54	917.49
2076.00	997.36
2077.45	1069.04
2078.90	1269.74
2080.35	1048.56
2081.80	933.87
2083.25	1023.98
2084.70	1273.84
2086.14	917.49
2087.59	1128.43
2089.04	940.02
2090.49	1210.35
2091.93	997.36
2093.38	1390.57
2094.83	1089.52
2096.27	978.93
2097.71	1085.42
2099.16	839.67
2100.60	997.36
2102.05	1028.08
2103.49	1312.75
2104.93	1200.11
2106.37	1187.82
2107.81	985.07
2109.25	997.36
2110.69	1185.77
2112.13	905.20
2113.57	956.40
2115.01	1066.99
2116.45	1028.08
2117.89	1007.60
2119.33	1122.29
2120.76	1159.15
2122.20	917.49
2123.63	966.64
2125.07	1212.40
2126.51	983.03
2127.94	1048.56
2129.37	952.31
2130.81	1157.10
2132.24	1060.85
2133.67	888.82
2135.11	1167.34
2136.54	874.48
2137.97	925.68
2139.40	1093.62
2140.83	1011.70
2142.26	1161.20
2143.69	983.02
2145.12	1226.73
2146.55	1040.37
2147.97	655.35
2149.40	837.62
2150.83	999.41
2152.25	1462.25
2153.68	1052.66
2155.11	1112.05
2156.53	1191.92
2157.96	1175.53
2159.38	1394.67
2160.80	1159.15
2162.23	948.21
2163.65	759.80
2165.07	1204.21
2166.49	1193.97
2167.91	933.87
2169.33	978.93
2170.75	876.53
2172.17	1202.16
2173.59	1183.73
2175.01	962.55
2176.43	886.77
2177.85	516.09
2179.27	821.24
2180.68	1044.46
2182.10	940.02
2183.52	903.15
2184.93	919.54
2186.35	962.55
2187.76	866.29
2189.18	940.02
2190.59	718.84
2192.00	1110.00
2193.42	931.83
2194.83	1206.25
2196.24	866.29
2197.65	753.65
2199.06	-135.17
2200.47	997.36
2201.88	882.67
2203.29	782.32
2204.70	860.15
2206.11	798.71
2207.52	1001.46
2208.93	772.08
2210.33	985.07
2211.74	929.78
2213.15	989.17
2214.55	1279.98
2215.96	1066.99
2217.36	923.63
2218.77	868.34
2220.17	835.57
2221.57	1069.04
2222.98	788.47
2224.38	864.24
2225.78	1060.85
2227.18	444.41
2228.58	788.47
2229.99	1040.37
2231.39	958.45
2232.79	827.38
2234.18	923.63
2235.58	714.74
2236.98	1132.53
2238.38	720.89
2239.78	1056.75
2241.17	1214.45
2242.57	870.39
2243.97	872.43
2245.36	1183.73
2246.76	1066.99
2248.15	907.25
2249.55	741.36
2250.94	1130.48
2252.33	1062.90
2253.73	1218.54
2255.12	1081.33
2256.51	3047.38
2257.90	935.92
2259.29	890.87
2260.68	827.38
2262.07	1091.57
2263.46	958.45
2264.85	1122.29
2266.24	989.17
2267.63	880.63
2269.02	1161.20
2270.40	950.26
2271.79	1073.14
2273.18	1234.93
2274.56	921.59
2275.95	827.38
2277.33	825.33
2278.72	763.89
2280.10	862.19
2281.49	880.63
2282.87	1064.94
2284.25	821.24
2285.63	976.88
2287.02	708.60
2288.40	1286.12
2289.78	767.99
2291.16	692.21
2292.54	950.26
2293.92	833.52
2295.30	1275.88
2296.68	753.65
2298.05	876.53
2299.43	811.00
2300.81	802.80
2302.19	854.00
2303.56	702.45
2304.94	790.52
2306.31	993.26
2307.69	595.96
2309.06	1038.32
2310.44	706.55
2311.81	800.76
2313.19	1005.55
2314.56	892.91
2315.93	751.60
2317.30	796.66
2318.67	933.87
2320.04	937.97
2321.41	1019.89
2322.78	966.64
2324.15	987.12
2325.52	813.04
2326.89	878.58
2328.26	950.26
2329.63	1120.24
2331.00	909.30
2332.36	915.44
2333.73	784.37
2335.09	839.67
2336.46	819.19
2337.83	698.36
2339.19	714.74
2340.55	851.95
2341.92	892.91
2343.28	817.14
2344.64	794.61
2346.01	698.36
2347.37	849.91
2348.73	772.08
2350.09	823.28
2351.45	755.70
2352.81	585.72
2354.17	39878.05
2355.53	1087.47
2356.89	11495.25
2358.25	817.14
2359.61	862.19
2360.96	864.24
2362.32	792.56
2363.68	929.78
2365.03	897.01
2366.39	1157.10
2367.74	841.72
2369.10	935.92
2370.45	876.53
2371.81	876.53
2373.16	954.35
2374.51	907.25
2375.86	630.77
2377.22	1015.79
2378.57	511.99
2379.92	714.74
2381.27	870.39
2382.62	827.38
2383.97	581.62
2385.32	937.97
2386.67	866.29
2388.02	712.69
2389.37	835.57
2390.71	653.30
2392.06	839.67
2393.41	948.21
2394.75	792.56
2396.10	894.96
2397.44	792.56
2398.79	894.96
2400.13	786.42
2401.48	817.14
2402.82	724.98
2404.17	778.23
2405.51	997.36
2406.85	792.56
2408.19	985.07
2409.53	800.76
2410.87	767.99
2412.22	350.20
2413.56	722.93
2414.89	1028.08
2416.23	1167.34
2417.57	575.48
2418.91	929.78
2420.25	731.12
2421.59	987.12
2422.92	755.70
2424.26	778.23
2425.60	894.96
2426.93	1081.33
2428.27	843.76
2429.60	1009.65
2430.94	792.56
2432.27	833.52
2433.60	864.24
2434.94	741.36
2436.27	1081.33
2437.60	811.00
2438.93	739.32
2440.27	1040.37
2441.60	884.72
2442.93	796.66
2444.26	923.63
2445.59	555.00
2446.92	794.61
2448.24	651.25
2449.57	880.63
2450.90	706.55
2452.23	878.58
2453.55	802.80
2454.88	731.12
2456.21	950.26
2457.53	1026.03
2458.86	759.80
2460.18	827.38
2461.51	753.65
2462.83	872.43
2464.15	804.85
2465.48	507.90
2466.80	866.29
2468.12	471.03
2469.44	790.52
2470.76	997.36
2472.09	903.15
2473.41	788.47
2474.73	780.28
2476.05	849.91
2477.36	987.12
2478.68	724.98
2480.00	987.12
2481.32	749.56
2482.64	1112.05
2483.95	987.12
2485.27	1279.98
2486.59	927.73
2487.90	954.35
2489.22	745.46
2490.53	827.38
2491.85	823.28
2493.16	868.34
2494.47	929.78
2495.79	860.15
2497.10	727.03
2498.41	667.64
2499.72	806.90
2501.03	864.24
2502.35	999.41
2503.66	528.38
2504.97	1042.42
2506.28	817.14
2507.59	733.17
2508.89	620.53
2510.20	788.47
2511.51	770.04
2512.82	772.08
2514.12	172.03
2515.43	942.07
2516.74	964.59
2518.04	440.31
2519.35	833.52
2520.65	827.38
2521.96	1023.98
2523.26	610.29
2524.57	638.97
2525.87	962.55
2527.17	804.85
2528.47	757.75
2529.78	1009.65
2531.08	729.08
2532.38	1042.42
2533.68	958.45
2534.98	1146.86
2536.28	946.16
2537.58	1015.79
2538.88	1167.34
2540.18	958.45
2541.47	1247.21
2542.77	1257.45
2544.07	978.93
2545.37	833.52
2546.66	1030.13
2547.96	823.28
2549.25	-1513.45
2550.55	1202.16
2551.84	1118.19
2553.14	972.79
2554.43	1087.47
2555.72	870.39
2557.02	1019.89
2558.31	944.11
2559.60	983.02
2560.89	944.11
2562.18	1173.49
2563.48	1267.69
2564.77	782.32
2566.06	997.36
2567.35	1011.70
2568.63	1028.08
2569.92	1206.25
2571.21	1228.78
2572.50	907.25
2573.79	1064.94
2575.07	974.83
2576.36	1363.95
2577.65	866.29
2578.93	960.50
2580.22	1193.97
2581.50	1275.88
2582.79	974.83
2584.07	1153.01
2585.36	1048.56
2586.64	952.31
2587.92	1271.79
2589.20	886.77
2590.49	872.43
2591.77	933.87
2593.05	782.32
2594.33	669.69
2595.61	1052.66
2596.89	897.01
2598.17	1046.51
2599.45	894.96
2600.73	1155.05
2602.00	874.48
2603.28	974.83
2604.56	1132.53
2605.84	1064.94
2607.11	1107.95
2608.39	1071.09
2609.67	1175.53
2610.94	1032.18
2612.22	905.20
2613.49	653.30
2614.76	733.17
2616.04	942.07
2617.31	905.20
2618.58	925.68
2619.86	985.07
2621.13	1069.04
2622.40	702.45
2623.67	1001.46
2624.94	1107.95
2626.21	983.02
2627.48	806.90
2628.75	1066.99
2630.02	964.59
2631.29	905.20
2632.56	1222.64
2633.82	765.94
2635.09	870.39
2636.36	915.44
2637.63	966.64
2638.89	1089.52
2640.16	1150.96
2641.42	1101.81
2642.69	1441.77
2643.95	1066.99
2645.22	868.34
2646.48	763.89
2647.74	1185.77
2649.01	940.02
2650.27	913.39
2651.53	872.43
2652.79	1181.68
2654.05	1032.18
2655.31	985.07
2656.57	1062.90
2657.83	1054.70
2659.09	1093.62
2660.35	952.31
2661.61	1134.57
2662.87	2936.79
2664.13	1095.66
2665.38	1337.32
2666.64	1210.35
2667.90	1206.25
2669.15	1652.71
2670.41	972.79
2671.67	942.07
2672.92	1222.64
2674.17	1486.83
2675.43	1296.36
2676.68	1593.32
2677.94	1384.43
2679.19	1470.44
2680.44	1363.95
2681.69	1409.00
2682.95	1558.50
2684.20	1570.79
2685.45	1974.24
2686.70	1605.61
2687.95	1570.79
2689.20	1769.45
2690.45	1691.62
2691.70	1886.18
2692.94	1423.34
2694.19	1832.93
2695.44	2062.30
2696.69	1732.58
2697.93	1892.32
2699.18	2115.55
2700.43	2093.02
2701.67	2572.25
2702.92	2543.58
2704.16	2502.62
2705.41	3170.26
2706.65	2914.26
2707.89	3106.77
2709.14	3209.17
2710.38	2781.14
2711.62	3594.19
2712.86	3321.81
2714.11	3444.68
2715.35	3561.42
2716.59	3516.36
2717.83	3176.40
2719.07	3778.50
2720.31	3661.77
2721.55	3923.91
2722.78	3635.14
2724.02	3858.37
2725.26	4313.02
2726.50	4022.21
2727.73	3911.62
2728.97	4147.14
2730.21	3463.12
2731.44	3913.67
2732.68	3721.16
2733.91	3821.51
2735.15	3844.04
2736.38	3690.44
2737.62	3780.55
2738.85	3311.57
2740.08	3438.54
2741.32	3321.81
2742.55	3217.36
2743.78	3311.57
2745.01	3682.25
2746.24	3612.62
2747.47	3448.78
2748.70	2244.57
2749.93	3596.23
2751.16	3686.34
2752.39	3346.38
2753.62	3577.80
2754.85	3585.99
2756.08	3780.55
2757.30	3641.29
2758.53	3205.07
2759.76	3485.64
2760.98	3536.84
2762.21	3631.05
2763.43	3336.14
2764.66	3301.33
2765.88	3362.76
2767.11	3010.51
2768.33	2928.60
2769.55	3125.20
2770.78	2394.08
2772.00	2549.72
2773.22	2680.79
2774.44	2754.52
2775.67	2772.95
2776.89	2783.19
2778.11	2781.14
2779.33	2777.05
2780.55	3055.57
2781.77	2736.09
2782.99	2813.91
2784.20	2754.52
2785.42	3010.51
2786.64	2858.96
2787.86	2904.02
2789.07	2985.94
2790.29	2496.47
2791.51	2881.49
2792.72	2885.59
2793.94	2787.29
2795.15	3254.22
2796.37	2750.42
2797.58	3123.15
2798.80	3274.70
2800.01	3342.28
2801.22	3444.68
2802.44	2985.94
2803.65	3190.74
2804.86	3303.37
2806.07	3758.02
2807.28	3366.86
2808.49	3506.12
2809.70	3647.43
2810.91	3700.68
2812.12	3831.75
2813.33	3819.46
2814.54	4253.63
2815.75	4374.46
2816.96	3925.96
2818.16	4167.62
2819.37	4581.31
2820.58	4997.04
2821.78	4831.16
2822.99	5076.91
2824.20	5337.01
2825.40	5398.45
2826.61	5593.00
2827.81	5644.20
2829.01	5867.43
2830.22	6277.02
2831.42	6184.87
2832.62	6373.28
2833.83	6332.32
2835.03	7106.45
2836.23	7387.02
2837.43	7196.56
2838.63	7202.71
2839.83	7673.74
2841.03	7276.43
2842.23	7901.06
2843.43	8165.25
2844.63	8195.97
2845.83	8343.42
2847.03	8511.36
2848.22	8644.48
2849.42	9453.42
2850.62	9799.53
2851.81	9920.36
2853.01	10264.42
2854.21	11089.75
2855.40	10667.87
2856.60	10045.29
2857.79	11657.04
2858.99	12040.01
2860.18	12302.15
2861.37	13455.15
2862.57	14116.65
2863.76	14538.53
2864.95	15603.47
2866.14	15984.40
2867.33	18102.00
2868.52	19123.93
2869.72	21540.54
2870.91	23123.62
2872.10	24473.23
2873.28	25472.64
2874.47	25871.99
2875.66	26777.19
2876.85	30385.71
2878.04	31634.97
2879.23	31378.98
2880.41	33283.59
2881.60	32984.58
2882.79	33525.25
2883.97	34663.92
2885.16	34674.16
2886.34	33967.61
2887.53	33351.17
2888.71	34043.38
2889.90	32742.92
2891.08	32744.97
2892.26	31698.46
2893.45	30938.66
2894.63	31761.95
2895.81	31012.39
2896.99	29974.07
2898.17	29290.05
2899.36	29568.57
2900.54	28290.64
2901.72	25831.03
2902.90	26752.62
2904.08	26230.38
2905.26	26058.35
2906.43	25734.78
2907.61	25511.55
2908.79	25095.81
2909.97	25382.52
2911.14	25235.07
2912.32	25458.30
2913.50	25806.45
2914.67	25458.30
2915.85	27018.85
2917.02	28149.33
2918.20	29109.83
2919.37	31225.38
2920.55	32896.52
2921.72	32251.41
2922.90	37488.07
2924.07	38747.57
2925.24	43242.86
2926.41	47090.99
2927.58	48354.59
2928.76	50799.86
2929.93	50187.52
2931.10	53554.38
2932.27	52931.80
2933.44	43812.20
2934.61	52485.34
2935.78	33793.53
2936.95	51154.16
2938.11	51023.09
2939.28	48459.04
2940.45	46370.11
2941.62	43150.70
2942.78	36296.15
2943.95	37504.45
2945.12	36437.46
2946.28	34412.02
2947.45	32171.54
2948.61	29582.91
2949.78	28585.55
2950.94	26525.29
2952.10	24800.90
2953.27	23586.46
2954.43	22570.66
2955.59	20930.24
2956.76	20688.58
2957.92	19869.39
2959.08	19533.53
2960.24	19087.07
2961.40	18503.40
2962.56	19201.76
2963.72	19351.26
2964.88	19975.89
2966.04	20616.90
2967.20	20473.54
2968.36	20778.69
2969.52	21094.08
2970.67	21515.96
2971.83	22111.92
2972.99	23436.95
2974.14	22744.74
2975.30	23846.55
2976.46	21339.83
2977.61	23766.68
2978.77	23588.50
2979.92	22361.77
2981.08	23094.94
2982.23	22554.28
2983.38	22118.06
2984.54	21774.00
2985.69	20774.59
2986.84	19840.72
2987.99	17995.50
2989.15	17442.55
2990.30	16277.26
2991.45	14247.72
2992.60	14253.86
2993.75	13928.24
2994.90	12771.13
2996.05	12416.83
2997.20	11333.46
2998.35	10665.82
2999.49	10137.45
3000.64	9387.89
3001.79	8943.48
3002.94	8609.66
3004.08	7978.89
3005.23	7557.00
3006.38	7452.56
3007.52	7057.30
3008.67	6596.51
3009.81	6598.56
3010.96	6018.98
3012.10	5973.92
3013.25	5840.81
3014.39	5570.48
3015.53	5373.87
3016.67	5572.52
3017.82	5085.11
3018.96	5339.05
3020.10	4900.79
3021.24	4986.80
3022.38	5130.16
3023.52	4876.21
3024.66	4775.86
3025.80	4571.07
3026.94	4839.35
3028.08	4294.59
3029.22	4861.88
3030.36	4386.75
3031.50	4407.23
3032.63	4394.94
3033.77	4157.38
3034.91	4196.29
3036.04	4341.69
3037.18	4327.36
3038.32	4607.93
3039.45	4233.15
3040.59	4190.14
3041.72	4433.85
3042.86	4274.11
3043.99	4155.33
3045.12	4304.83
3046.26	4304.83
3047.39	4171.71
3048.52	4442.04
3049.65	4227.01
3050.78	4081.60
3051.92	4419.52
3053.05	4507.58
3054.18	3983.30
3055.31	4575.16
3056.44	4353.98
3057.57	4544.44
3058.70	4270.01
3059.82	3960.77
3060.95	4259.78
3062.08	4048.83
3063.21	3592.14
3064.34	4265.92
3065.46	4585.40
3066.59	4409.28
3067.71	4278.21
3068.84	4437.95
3069.97	4353.98
3071.09	4200.38
3072.22	4501.44
3073.34	4480.96
3074.46	4526.01
3075.59	4609.98
3076.71	4351.93
3077.83	4667.32
3078.96	4292.54
3080.08	4636.60
3081.20	4427.71
3082.32	4206.53
3083.44	4329.41
3084.56	4433.85
3085.68	4609.98
3086.80	4724.66
3087.92	4235.20
3089.04	4757.43
3090.16	4591.55
3091.28	4491.20
3092.40	4577.21
3093.51	4528.06
3094.63	4409.28
3095.75	4634.55
3096.87	4417.47
3097.98	4808.63
3099.10	4798.39
3100.21	4159.42
3101.33	4540.35
3102.44	4753.34
3103.56	4722.62
3104.67	5001.14
3105.79	4851.64
3106.90	5296.05
3108.01	4839.35
3109.12	5152.69
3110.24	5119.92
3111.35	5201.84
3112.46	5144.50
3113.57	5345.20
3114.68	4814.77
3115.79	5132.21
3116.90	5492.65
3118.01	5568.43
3119.12	5834.66
3120.23	5724.07
3121.34	5480.36
3122.45	5367.73
3123.56	5699.50
3124.66	5337.01
3125.77	5666.73
3126.88	5914.53
3127.98	6123.43
3129.09	5900.20
3130.20	6160.29
3131.30	5574.57
3132.41	6315.94
3133.51	6246.30
3134.61	5945.25
3135.72	6383.52
3136.82	6152.10
3137.93	6473.63
3139.03	6406.05
3140.13	6483.87
3141.23	6539.16
3142.33	6358.94
3143.44	6504.35
3144.54	6686.62
3145.64	6678.43
3146.74	6475.68
3147.84	7004.05
3148.94	7104.40
3150.04	7020.44
3151.14	7397.26
3152.23	7550.86
3153.33	7255.95
3154.43	7335.82
3155.53	7495.57
3156.63	7731.08
3157.72	7800.71
3158.82	7722.89
3159.91	7567.24
3161.01	8130.44
3162.11	8013.70
3163.20	7819.14
3164.30	7714.70
3165.39	6274.98
3166.48	7782.28
3167.58	7999.37
3168.67	7997.32
3169.76	8320.90
3170.86	8003.46
3171.95	8417.15
3173.04	8560.51
3174.13	8359.81
3175.22	8441.73
3176.31	8359.81
3177.40	8173.44
3178.49	9021.30
3179.58	8554.37
3180.67	8263.55
3181.76	9088.89
3182.85	8877.94
3183.94	8957.82
3185.03	8953.72
3186.11	7794.57
3187.20	8953.72
3188.29	8648.57
3189.37	9365.36
3190.46	8787.83
3191.55	8753.02
3192.63	8914.81
3193.72	8939.38
3194.80	9070.45
3195.89	9328.50
3196.97	9346.93
3198.05	9996.14
3199.14	9168.76
3200.22	9557.87
3201.30	9607.02
3202.38	9416.56
3203.47	9211.76
3204.55	9961.32
3205.63	12349.25
3206.71	8902.52
3207.79	9604.97
3208.87	9992.04
3209.95	9748.33
3211.03	10248.04
3212.11	9838.44
3213.19	9277.30
3214.27	9613.17
3215.34	9934.70
3216.42	10200.93
3217.50	9768.81
3218.58	10311.52
3219.65	9910.12
3220.73	10153.83
3221.80	10424.16
3222.88	10098.53
3223.96	10399.59
3225.03	10690.40
3226.10	10356.58
3227.18	10794.84
3228.25	10172.26
3229.33	10985.30
3230.40	10235.75
3231.47	10438.50
3232.54	10141.54
3233.62	10362.72
3234.69	10614.62
3235.76	10905.43
3236.83	11054.94
3237.90	10897.24
3238.97	10293.09
3240.04	10456.93
3241.11	10583.90
3242.18	10817.37
3243.25	10768.22
3244.32	9377.65
3245.39	10913.63
3246.45	11149.14
3247.52	10934.11
3248.59	10917.72
3249.66	10807.13
3250.72	11317.08
3251.79	11276.12
3252.85	10776.41
3253.92	10991.45
3254.98	11046.74
3256.05	11245.40
3257.11	10930.01
3258.18	11083.61
3259.24	11136.85
3260.30	11259.73
3261.37	10934.11
3262.43	11030.36
3263.49	10555.23
3264.55	10901.34
3265.62	10805.08
3266.68	10655.58
3267.74	11241.30
3268.80	10792.80
3269.86	11489.10
3270.92	10766.17
3271.98	10848.09
3273.04	11343.70
3274.10	10639.20
3275.16	10827.61
3276.21	10729.31
3277.27	10198.88
3278.33	10997.59
3279.39	10682.21
3280.44	10827.61
3281.50	10815.32
3282.56	9944.94
3283.61	10057.57
3284.67	10454.88
3285.72	10798.94
3286.78	10289.00
3287.83	10796.89
3288.88	10610.53
3289.94	10979.16
3290.99	10434.40
3292.04	9748.33
3293.10	10819.42
3294.15	10592.09
3295.20	11046.74
3296.25	10714.97
3297.30	10418.02
3298.36	10540.90
3299.41	10690.40
3300.46	10344.29
3301.51	10196.84
3302.56	10235.75
3303.61	10557.28
3304.65	10588.00
3305.70	10383.20
3306.75	10084.20
3307.80	10573.66
3308.85	10317.67
3309.89	10598.24
3310.94	11200.34
3311.99	10671.97
3313.03	10209.12
3314.08	10348.39
3315.12	10213.22
3316.17	10168.16
3317.21	10788.70
3318.26	10751.84
3319.30	10561.37
3320.35	10612.57
3321.39	10512.22
3322.43	10827.61
3323.48	10567.52
3324.52	10878.81
3325.56	10073.96
3326.60	10729.31
3327.64	10985.30
3328.68	10631.01
3329.73	10465.12
3330.77	10653.53
3331.81	10956.63
3332.85	10544.99
3333.88	10628.96
3334.92	10485.60
3335.96	10776.41
3337.00	10489.70
3338.04	10938.20
3339.08	11159.38
3340.11	10831.71
3341.15	10424.16
3342.19	10977.11
3343.22	10831.71
3344.26	10434.40
3345.30	10676.06
3346.33	11042.65
3347.37	10616.67
3348.40	10794.84
3349.43	10270.56
3350.47	10993.50
3351.50	10823.51
3352.54	10751.84
3353.57	10889.05
3354.60	11083.61
3355.63	11247.44
3356.67	11173.72
3357.70	10858.33
3358.73	9564.01
3359.76	11054.94
3360.79	10995.54
3361.82	10749.79
3362.85	10749.79
3363.88	10784.60
3364.91	10682.20
3365.94	10843.99
3366.97	10547.04
3367.99	10805.08
3369.02	11046.74
3370.05	10096.49
3371.08	11022.17
3372.10	10477.41
3373.13	10864.47
3374.16	10909.53
3375.18	10190.69
3376.21	10772.32
3377.23	10864.47
3378.26	10897.24
3379.28	10815.32
3380.31	10841.95
3381.33	11173.72
3382.35	11007.83
3383.38	10743.64
3384.40	10733.40
3385.42	10643.29
3386.45	10882.91
3387.47	11165.53
3388.49	11177.81
3389.51	10366.82
3390.53	10993.50
3391.55	10803.04
3392.57	11175.77
3393.59	11063.13
3394.61	11061.08
3395.63	10827.61
3396.65	10749.79
3397.67	10311.52
3398.69	10831.71
3399.70	10936.15
3400.72	11046.74
3401.74	11425.62
3402.76	10286.95
3403.77	11120.47
3404.79	10839.90
3405.80	10628.96
3406.82	10749.79
3407.83	10241.89
3408.85	10747.74
3409.86	10467.17
3410.88	10919.77
3411.89	11243.35
3412.91	10880.86
3413.92	11251.54
3414.93	11011.93
3415.94	10870.62
3416.96	10526.56
3417.97	10487.65
3418.98	10903.39
3419.99	13967.15
3421.00	10993.50
3422.01	10864.47
3423.02	11099.99
3424.03	10346.34
3425.04	10485.60
3426.05	11063.13
3427.06	11663.18
3428.07	11437.91
3429.08	11511.63
3430.09	10940.25
3431.09	11294.55
3432.10	11104.09
3433.11	11491.15
3434.12	11491.15
3435.12	11255.64
3436.13	10887.00
3437.13	11571.02
3438.14	10671.97
3439.14	10919.77
3440.15	10882.91
3441.15	10917.72
3442.16	10665.82
3443.16	10862.43
3444.16	10887.00
3445.17	10848.09
3446.17	10520.42
3447.17	10674.01
3448.17	10532.70
3449.18	10579.81
3450.18	10690.40
3451.18	10782.56
3452.18	10975.06
3453.18	10954.58
3454.18	10913.63
3455.18	10954.58
3456.18	10932.06
3457.18	10788.70
3458.18	10862.43
3459.17	10522.46
3460.17	10592.09
3461.17	9891.69
3462.17	10477.41
3463.17	10467.17
3464.16	10073.96
3465.16	10139.49
3466.15	9815.91
3467.15	10067.81
3468.15	10063.72
3469.14	9871.21
3470.14	10264.42
3471.13	10291.04
3472.13	10014.57
3473.12	9645.93
3474.11	9693.04
3475.11	9877.35
3476.10	9547.63
3477.09	9877.35
3478.08	9598.83
3479.08	9594.73
3480.07	9404.27
3481.06	9162.61
3482.05	8912.76
3483.04	9021.30
3484.03	9248.63
3485.02	9090.93
3486.01	9242.48
3487.00	8982.39
3487.99	8712.06
3488.98	8963.96
3489.97	8603.52
3490.95	9033.59
3491.94	8742.78
3492.93	8593.28
3493.92	8918.90
3494.90	8179.59
3495.89	8437.63
3496.88	8167.30
3497.86	8187.78
3498.85	8515.45
3499.83	8304.51
3500.82	8482.69
3501.80	8191.88
3502.79	8208.26
3503.77	8175.49
3504.75	8093.57
3505.74	8314.75
3506.72	7853.96
3507.70	8087.43
3508.68	7976.84
3509.67	8052.61
3510.65	7679.88
3511.63	8095.62
3512.61	7866.25
3513.59	7585.68
3514.57	7409.55
3515.55	7561.10
3516.53	7710.60
3517.51	7548.81
3518.49	7681.93
3519.47	7696.27
3520.45	7067.54
3521.42	6936.47
3522.40	7282.58
3523.38	7296.91
3524.36	7104.40
3525.33	7196.56
3526.31	7374.74
3527.29	7063.44
3528.26	7006.10
3529.24	6969.24
3530.21	6932.37
3531.19	7061.40
3532.16	6920.09
3533.14	6866.84
3534.11	6625.18
3535.08	6680.47
3536.06	6875.03
3537.03	6768.54
3538.00	6707.10
3538.98	6461.34
3539.95	6473.63
3540.92	6651.80
3541.89	6332.32
3542.86	6133.67
3543.83	6238.11
3544.80	5906.34
3545.77	6092.71
3546.74	5892.01
3547.71	5822.38
3548.68	6086.56
3549.65	6066.08
3550.62	5953.45
3551.59	5937.06
3552.56	5959.59
3553.52	5939.11
3554.49	5873.57
3555.46	5683.11
3556.42	5588.91
3557.39	5691.31
3558.36	5662.63
3559.32	5117.87
3560.29	5380.01
3561.25	5230.51
3562.22	5058.48
3563.18	5463.98
3564.15	4747.19
3565.11	5113.78
3566.07	5076.91
3567.04	5115.83
3568.00	5124.02
3568.96	4636.60
3569.92	5115.83
3570.89	4702.14
3571.85	5023.67
3572.81	4997.04
3573.77	4845.49
3574.73	4575.16
3575.69	4353.98
3576.65	4906.93
3577.61	4265.92
3578.57	4503.48
3579.53	4556.73
3580.49	4509.63
3581.45	4446.14
3582.40	4198.34
3583.36	3930.05
3584.32	4343.74
3585.28	4263.87
3586.23	4210.62
3587.19	4306.88
3588.15	4229.06
3589.10	4085.70
3590.06	4155.33
3591.01	4124.61
3591.97	3772.36
3592.92	4085.70
3593.88	4243.39
3594.83	3723.21
3595.78	3934.15
3596.74	3925.96
3597.69	3876.80
3598.64	4032.45
3599.60	3739.59
3600.55	3921.86
3601.50	3573.71
3602.45	3778.50
3603.40	4011.97
3604.35	3885.00
3605.31	3755.97
3606.26	3856.33
3607.21	3712.97
3608.16	3780.55
3609.10	3502.03
3610.05	3555.27
3611.00	3207.12
3611.95	3309.52
3612.90	3235.79
3613.85	3375.05
3614.79	3606.47
3615.74	3200.98
3616.69	3106.77
3617.63	3575.75
3618.58	3293.13
3619.53	3416.01
3620.47	3272.65
3621.42	2928.60
3622.36	3200.98
3623.31	5699.50
3624.25	3151.82
3625.20	3373.00
3626.14	3137.49
3627.08	2824.15
3628.03	2719.70
3628.97	2977.75
3629.91	2852.82
3630.85	2979.79
3631.80	3256.27
3632.74	3340.24
3633.68	2645.98
3634.62	2932.69
3635.56	2772.95
3636.50	2959.31
3637.44	2629.59
3638.38	3289.04
3639.32	3362.76
3640.26	2494.43
3641.20	2912.21
3642.14	2426.84
3643.08	2738.13
3644.01	2785.24
3644.95	2502.62
3645.89	2629.59
3646.83	2535.39
3647.76	2457.56
3648.70	2707.41
3649.63	2465.75
3650.57	2289.63
3651.51	2498.52
3652.44	2269.15
3653.38	2631.64
3654.31	2355.16
3655.24	2414.56
3656.18	2318.30
3657.11	2818.01
3658.05	2244.57
3658.98	2045.92
3659.91	2387.93
3660.84	2154.46
3661.78	2172.89
3662.71	2162.65
3663.64	1916.90
3664.57	2117.60
3665.50	2037.73
3666.43	1890.28
3667.36	1566.70
3668.29	1695.72
3669.22	1456.11
3670.15	1910.75
3671.08	1765.35
3672.01	1982.43
3672.94	2486.23
3673.86	1802.21
3674.79	2009.06
3675.72	1439.72
3676.65	1736.68
3677.57	1503.21
3678.50	1896.42
3679.43	1478.63
3680.35	1660.90
3681.28	1759.21
3682.20	1888.23
3683.13	1591.27
3684.05	1550.31
3684.98	1433.58
3685.90	1640.42
3686.83	1310.70
3687.75	1650.66
3688.67	1294.32
3689.60	1288.17
3690.52	1216.49
3691.44	1066.99
3692.36	1425.39
3693.28	1120.24
3694.21	1400.81
3695.13	1265.64
3696.05	1124.33
3696.97	1181.68
3697.89	913.39
3698.81	1013.74
3699.73	903.15
3700.65	1069.04
3701.57	1056.75
3702.48	989.17
3703.40	952.31
3704.32	1064.94
3705.24	1083.38
3706.16	1210.35
3707.07	876.53
3707.99	985.07
3708.91	950.26
3709.82	993.26
3710.74	890.87
3711.66	870.39
3712.57	964.59
3713.49	1011.70
3714.40	778.23
3715.31	526.33
3716.23	892.91
3717.14	550.90
3718.06	675.83
3718.97	811.00
3719.88	802.80
3720.80	866.29
3721.71	0.00
3722.62	741.36
3723.53	0.00
3724.44	565.24
3725.35	0.00
3726.26	487.42
3727.18	-3817.41
3728.09	423.93
3729.00	825.33
3729.91	684.02
3730.81	516.09
3731.72	632.82
3732.63	358.39
3733.54	428.03
3734.45	485.37
3735.36	845.81
3736.26	788.47
3737.17	522.23
3738.08	581.62
3738.99	978.93
3739.89	425.98
3740.80	587.77
3741.70	511.99
3742.61	581.62
3743.51	477.18
3744.42	598.01
3745.32	309.24
3746.23	362.49
3747.13	411.64
3748.04	399.35
3748.94	618.49
3749.84	548.86
3750.74	352.25
3751.65	376.83
3752.55	366.59
3753.45	372.73
3754.35	321.53
3755.25	464.89
3756.16	493.56
3757.06	657.40
3757.96	493.56
3758.86	391.16
3759.76	165.89
3760.66	532.47
3761.55	389.11
3762.45	577.53
3763.35	487.42
3764.25	643.06
3765.15	374.78
3766.05	667.64
3766.94	507.90
3767.84	370.68
3768.74	356.35
3769.63	583.67
3770.53	309.24
3771.43	509.94
3772.32	387.07
3773.22	536.57
3774.11	329.72
3775.01	593.91
3775.90	483.32
3776.80	198.65
3777.69	428.03
3778.58	337.91
3779.48	327.67
3780.37	212.99
3781.26	272.38
3782.16	108.54
3783.05	110.59
3783.94	413.69
3784.83	296.96
3785.72	458.74
3786.61	258.04
3787.50	317.44
3788.39	385.02
3789.28	356.35
3790.17	350.20
3791.06	239.61
3791.95	542.71
3792.84	161.79
3793.73	192.51
3794.62	294.91
3795.51	305.15
3796.39	458.74
3797.28	370.68
3798.17	475.13
3799.06	354.30
3799.94	299.00
3800.83	374.78
3801.71	251.90
3802.60	57.34
3803.48	706.55
3804.37	468.98
3805.25	122.88
3806.14	511.99
3807.02	268.28
3807.91	352.25
3808.79	319.48
3809.67	370.68
3810.56	528.38
3811.44	372.73
3812.32	194.56
3813.20	-2.05
3814.09	428.03
3814.97	245.76
3815.85	585.72
3816.73	274.43
3817.61	161.79
3818.49	73.73
3819.37	92.16
3820.25	454.65
3821.13	278.52
3822.01	305.15
3822.89	325.63
3823.77	227.32
3824.65	227.32
3825.52	233.47
3826.40	104.45
3827.28	600.05
3828.16	374.78
3829.03	325.63
3829.91	356.35
3830.79	417.79
3831.66	557.05
3832.54	262.14
3833.41	475.13
3834.29	65.53
3835.16	522.23
3836.04	344.06
3836.91	153.60
3837.79	536.57
3838.66	327.68
3839.53	403.45
3840.41	342.01
3841.28	514.04
3842.15	229.37
3843.02	174.08
3843.90	284.67
3844.77	569.34
3845.64	258.04
3846.51	311.29
3847.38	501.75
3848.25	344.06
3849.12	-51.20
3849.99	24.58
3850.86	331.77
3851.73	163.84
3852.60	159.74
3853.47	243.71
3854.34	268.28
3855.21	204.80
3856.07	161.79
3856.94	331.77
3857.81	495.61
3858.68	225.28
3859.54	501.75
3860.41	299.00
3861.28	217.08
3862.14	413.69
3863.01	440.31
3863.87	307.20
3864.74	14.34
3865.60	468.98
3866.47	217.08
3867.33	233.47
3868.19	448.51
3869.06	270.33
3869.92	452.60
3870.78	309.24
3871.65	184.32
3872.51	360.44
3873.37	-751.60
3874.23	282.62
3875.10	366.59
3875.96	-139.26
3876.82	296.96
3877.68	157.69
3878.54	47.10
3879.40	329.72
3880.26	24.58
3881.12	296.96
3881.98	131.07
3882.84	317.44
3883.70	90.11
3884.55	210.94
3885.41	444.41
3886.27	376.83
3887.13	348.15
3887.99	141.31
3888.84	456.70
3889.70	247.80
3890.56	114.69
3891.41	217.08
3892.27	325.63
3893.12	348.15
3893.98	382.97
3894.83	301.05
3895.69	157.69
3896.54	204.80
3897.40	497.66
3898.25	294.91
3899.11	348.15
3899.96	161.79
3900.81	294.91
3901.66	112.64
3902.52	290.81
3903.37	190.46
3904.22	61.44
3905.07	342.01
3905.92	305.15
3906.78	497.66
3907.63	124.93
