raman   n
-2184.52	-28.67
-2181.51	-28.67
-2178.50	-28.67
-2175.49	24.58
-2172.49	-43.01
-2169.48	301.05
-2166.48	-55.30
-2163.48	-57.34
-2160.47	-108.54
-2157.47	233.47
-2154.47	-235.52
-2151.48	-32.77
-2148.48	-32.77
-2145.49	-262.14
-2142.49	-43.01
-2139.50	129.02
-2136.51	229.37
-2133.52	178.17
-2130.53	436.22
-2127.54	595.96
-2124.55	585.72
-2121.57	827.38
-2118.58	647.16
-2115.60	686.07
-2112.62	1021.94
-2109.64	710.65
-2106.66	1048.56
-2103.68	925.68
-2100.70	835.57
-2097.73	823.28
-2094.75	886.77
-2091.78	919.54
-2088.81	647.16
-2085.83	559.10
-2082.86	1189.87
-2079.90	880.63
-2076.93	1056.75
-2073.96	798.71
-2071.00	821.24
-2068.03	995.31
-2065.07	593.91
-2062.11	868.34
-2059.15	884.72
-2056.19	727.03
-2053.23	940.02
-2050.27	1042.42
-2047.32	1124.33
-2044.36	962.55
-2041.41	856.05
-2038.46	628.73
-2035.51	862.19
-2032.56	1284.08
-2029.61	1007.60
-2026.66	864.24
-2023.72	897.01
-2020.77	1134.57
-2017.83	1038.32
-2014.88	606.20
-2011.94	587.77
-2009.00	911.35
-2006.06	954.35
-2003.13	1036.27
-2000.19	468.98
-1997.25	579.58
-1994.32	835.57
-1991.39	757.75
-1988.45	989.17
-1985.52	1028.08
-1982.59	790.52
-1979.67	1036.27
-1976.74	843.76
-1973.81	1093.62
-1970.89	888.82
-1967.96	917.49
-1965.04	800.76
-1962.12	909.30
-1959.20	1069.04
-1956.28	870.39
-1953.36	811.00
-1950.45	897.01
-1947.53	749.56
-1944.62	819.19
-1941.70	776.18
-1938.79	733.17
-1935.88	839.67
-1932.97	970.74
-1930.06	653.30
-1927.15	579.58
-1924.25	735.22
-1921.34	546.81
-1918.44	917.49
-1915.54	847.86
-1912.63	755.70
-1909.73	651.25
-1906.83	1046.51
-1903.94	702.45
-1901.04	729.08
-1898.14	1005.55
-1895.25	501.75
-1892.36	759.80
-1889.46	753.65
-1886.57	602.10
-1883.68	786.42
-1880.79	921.59
-1877.91	722.93
-1875.02	589.82
-1872.13	821.24
-1869.25	757.75
-1866.37	684.02
-1863.48	921.59
-1860.60	1120.24
-1857.72	622.58
-1854.84	747.51
-1851.97	780.28
-1849.09	915.44
-1846.22	755.70
-1843.34	849.91
-1840.47	663.54
-1837.60	585.72
-1834.73	774.13
-1831.86	974.83
-1828.99	391.16
-1826.12	780.28
-1823.26	870.39
-1820.39	722.93
-1817.53	722.93
-1814.67	675.83
-1811.80	745.46
-1808.94	710.65
-1806.08	823.28
-1803.23	606.20
-1800.37	731.12
-1797.51	909.30
-1794.66	749.56
-1791.81	339.96
-1788.95	571.38
-1786.10	907.25
-1783.25	874.48
-1780.40	649.21
-1777.56	86.01
-1774.71	786.42
-1771.86	628.73
-1769.02	663.54
-1766.18	624.63
-1763.33	630.77
-1760.49	831.48
-1757.65	944.11
-1754.81	239.61
-1751.98	804.85
-1749.14	860.15
-1746.30	571.38
-1743.47	716.79
-1740.64	808.95
-1737.81	638.97
-1734.97	706.55
-1732.14	802.80
-1729.32	866.29
-1726.49	870.39
-1723.66	618.49
-1720.84	716.79
-1718.01	1040.37
-1715.19	571.38
-1712.37	514.04
-1709.55	749.56
-1706.73	712.69
-1703.91	737.27
-1701.09	487.42
-1698.27	741.36
-1695.46	946.16
-1692.65	874.48
-1689.83	581.62
-1687.02	544.76
-1684.21	684.02
-1681.40	724.98
-1678.59	493.56
-1675.78	550.90
-1672.98	432.12
-1670.17	1050.61
-1667.37	811.00
-1664.56	614.39
-1661.76	593.91
-1658.96	698.36
-1656.16	598.01
-1653.36	819.19
-1650.57	692.21
-1647.77	401.40
-1644.97	464.89
-1642.18	643.06
-1639.39	536.57
-1636.60	974.83
-1633.80	589.82
-1631.01	575.48
-1628.23	899.06
-1625.44	868.34
-1622.65	892.91
-1619.87	929.78
-1617.08	690.17
-1614.30	577.53
-1611.52	622.58
-1608.74	653.30
-1605.96	395.26
-1603.18	839.67
-1600.40	526.33
-1597.62	923.63
-1594.85	811.00
-1592.07	755.70
-1589.30	698.36
-1586.53	845.81
-1583.76	735.22
-1580.99	546.81
-1578.22	460.79
-1575.45	598.01
-1572.68	614.39
-1569.92	614.39
-1567.15	385.02
-1564.39	618.49
-1561.63	1007.60
-1558.86	647.16
-1556.10	409.59
-1553.34	1110.00
-1550.59	700.41
-1547.83	901.11
-1545.07	1009.65
-1542.32	442.36
-1539.56	806.90
-1536.81	559.10
-1534.06	710.65
-1531.31	751.60
-1528.56	604.15
-1525.81	952.31
-1523.06	727.03
-1520.32	3651.53
-1517.57	634.87
-1514.83	722.93
-1512.09	755.70
-1509.34	493.56
-1506.60	737.27
-1503.86	552.95
-1501.12	477.18
-1498.39	643.06
-1495.65	741.36
-1492.91	724.98
-1490.18	886.77
-1487.45	591.86
-1484.71	522.23
-1481.98	983.03
-1479.25	716.79
-1476.52	733.17
-1473.80	460.79
-1471.07	481.27
-1468.34	550.90
-1465.62	772.08
-1462.89	751.60
-1460.17	890.87
-1457.45	686.07
-1454.73	481.27
-1452.01	739.32
-1449.29	890.87
-1446.57	548.86
-1443.86	743.41
-1441.14	1189.87
-1438.43	460.79
-1435.71	481.27
-1433.00	557.05
-1430.29	761.84
-1427.58	581.62
-1424.87	376.83
-1422.16	911.35
-1419.46	714.74
-1416.75	282.62
-1414.05	653.30
-1411.34	501.75
-1408.64	575.48
-1405.94	511.99
-1403.24	677.88
-1400.54	638.97
-1397.84	-3123.15
-1395.14	618.49
-1392.45	964.59
-1389.75	585.72
-1387.06	698.36
-1384.36	497.66
-1381.67	786.42
-1378.98	698.36
-1376.29	763.89
-1373.60	620.53
-1370.91	847.86
-1368.23	534.52
-1365.54	811.00
-1362.86	628.73
-1360.17	837.62
-1357.49	833.52
-1354.81	790.52
-1352.13	366.59
-1349.45	876.53
-1346.77	831.48
-1344.09	970.74
-1341.42	700.41
-1338.74	567.29
-1336.07	602.10
-1333.39	610.29
-1330.72	841.72
-1328.05	401.40
-1325.38	428.03
-1322.71	735.22
-1320.04	188.41
-1317.37	761.84
-1314.71	665.59
-1312.04	608.25
-1309.38	581.62
-1306.72	706.55
-1304.05	690.17
-1301.39	757.75
-1298.73	425.98
-1296.08	661.49
-1293.42	489.46
-1290.76	649.21
-1288.10	724.98
-1285.45	299.00
-1282.80	577.53
-1280.14	847.86
-1277.49	690.17
-1274.84	485.37
-1272.19	604.15
-1269.54	659.45
-1266.90	636.92
-1264.25	759.80
-1261.60	755.70
-1258.96	712.69
-1256.32	675.83
-1253.67	862.19
-1251.03	817.14
-1248.39	694.26
-1245.75	854.00
-1243.11	714.74
-1240.48	507.90
-1237.84	722.93
-1235.20	911.35
-1232.57	571.38
-1229.94	538.62
-1227.31	380.92
-1224.67	368.63
-1222.04	507.90
-1219.41	526.33
-1216.79	528.38
-1214.16	733.17
-1211.53	657.40
-1208.91	593.91
-1206.28	233.47
-1203.66	753.65
-1201.04	727.03
-1198.42	557.05
-1195.80	583.67
-1193.18	626.68
-1190.56	655.35
-1187.94	776.18
-1185.33	348.15
-1182.71	487.42
-1180.10	288.76
-1177.49	401.40
-1174.87	657.40
-1172.26	567.29
-1169.65	528.38
-1167.04	647.16
-1164.44	860.15
-1161.83	600.05
-1159.22	423.93
-1156.62	460.79
-1154.01	329.72
-1151.41	401.40
-1148.81	495.61
-1146.21	491.51
-1143.61	526.33
-1141.01	667.64
-1138.41	356.35
-1135.81	415.74
-1133.22	671.73
-1130.62	1173.49
-1128.03	761.84
-1125.44	630.77
-1122.84	509.94
-1120.25	903.15
-1117.66	425.98
-1115.07	542.71
-1112.49	428.03
-1109.90	749.56
-1107.31	643.06
-1104.73	1458.15
-1102.14	641.01
-1099.56	454.65
-1096.98	532.47
-1094.40	413.69
-1091.82	497.66
-1089.24	905.20
-1086.66	511.99
-1084.08	571.38
-1081.51	440.31
-1078.93	536.57
-1076.36	561.14
-1073.79	489.46
-1071.21	626.68
-1068.64	458.75
-1066.07	452.60
-1063.50	567.29
-1060.93	684.02
-1058.37	774.13
-1055.80	532.47
-1053.24	577.53
-1050.67	698.36
-1048.11	837.62
-1045.55	616.44
-1042.99	321.53
-1040.42	364.54
-1037.87	821.24
-1035.31	563.19
-1032.75	522.23
-1030.19	675.83
-1027.64	559.10
-1025.08	464.89
-1022.53	397.31
-1019.98	262.14
-1017.43	296.96
-1014.88	548.86
-1012.33	391.16
-1009.78	489.46
-1007.23	786.42
-1004.68	397.31
-1002.14	651.25
-999.59	403.45
-997.05	952.31
-994.51	688.12
-991.96	501.75
-989.42	698.36
-986.88	511.99
-984.34	446.46
-981.81	499.70
-979.27	477.18
-976.73	411.64
-974.20	118.78
-971.66	487.42
-969.13	511.99
-966.60	342.01
-964.07	636.92
-961.54	137.21
-959.01	530.42
-956.48	620.53
-953.95	653.30
-951.43	600.05
-948.90	489.46
-946.38	534.52
-943.85	444.41
-941.33	511.99
-938.81	638.97
-936.29	401.40
-933.77	583.67
-931.25	694.26
-928.73	745.46
-926.22	620.53
-923.70	458.74
-921.19	534.52
-918.67	217.08
-916.16	417.79
-913.65	296.96
-911.14	528.38
-908.63	632.82
-906.12	475.13
-903.61	495.61
-901.10	573.43
-898.59	903.15
-896.09	495.61
-893.59	700.41
-891.08	604.15
-888.58	649.21
-886.08	765.94
-883.58	473.08
-881.08	530.42
-878.58	813.04
-876.08	897.01
-873.58	817.14
-871.09	663.54
-868.59	765.94
-866.10	602.10
-863.61	182.27
-861.12	686.07
-858.62	468.98
-856.13	552.95
-853.64	636.92
-851.16	835.57
-848.67	620.53
-846.18	520.18
-843.70	454.65
-841.21	499.70
-838.73	606.20
-836.25	690.17
-833.77	258.04
-831.28	471.03
-828.81	-655.35
-826.33	503.80
-823.85	628.73
-821.37	618.49
-818.90	565.24
-816.42	587.77
-813.95	755.70
-811.47	456.70
-809.00	-804.85
-806.53	657.40
-804.06	681.97
-801.59	370.68
-799.12	372.73
-796.65	774.13
-794.19	399.35
-791.72	251.90
-789.26	462.84
-786.79	718.84
-784.33	407.55
-781.87	348.15
-779.41	475.13
-776.95	319.48
-774.49	634.87
-772.03	485.37
-769.57	534.52
-767.12	325.63
-764.66	618.49
-762.21	759.80
-759.75	882.67
-757.30	366.59
-754.85	591.86
-752.40	266.24
-749.95	325.63
-747.50	305.15
-745.05	604.15
-742.60	540.66
-740.16	409.59
-737.71	372.73
-735.27	632.82
-732.82	669.69
-730.38	555.00
-727.94	313.34
-725.50	1665.00
-723.06	428.03
-720.62	555.00
-718.18	565.24
-715.74	454.65
-713.31	223.23
-710.87	583.67
-708.44	358.39
-706.01	491.51
-703.57	499.70
-701.14	432.12
-698.71	532.47
-696.28	903.15
-693.85	354.30
-691.42	319.48
-689.00	460.79
-686.57	702.45
-684.15	446.46
-681.72	391.16
-679.30	444.41
-676.88	485.37
-674.45	495.61
-672.03	378.87
-669.61	630.77
-667.20	210.94
-664.78	409.59
-662.36	8.19
-659.94	352.25
-657.53	628.73
-655.12	425.98
-652.70	569.34
-650.29	776.18
-647.88	514.04
-645.47	618.49
-643.06	520.18
-640.65	466.94
-638.24	456.70
-635.83	374.78
-633.43	434.17
-631.02	655.35
-628.62	763.89
-626.22	483.32
-623.81	516.09
-621.41	409.59
-619.01	163.84
-616.61	739.32
-614.21	630.77
-611.81	591.86
-609.42	450.55
-607.02	2011.11
-604.63	555.00
-602.23	430.07
-599.84	583.67
-597.45	448.51
-595.05	628.73
-592.66	669.69
-590.27	282.62
-587.88	761.84
-585.50	595.96
-583.11	731.12
-580.72	479.22
-578.34	843.76
-575.95	454.65
-573.57	475.13
-571.19	522.23
-568.80	348.15
-566.42	708.60
-564.04	626.68
-561.66	657.40
-559.29	491.51
-556.91	360.44
-554.53	409.59
-552.16	598.01
-549.78	655.35
-547.41	702.45
-545.03	538.62
-542.66	483.32
-540.29	552.95
-537.92	655.35
-535.55	966.64
-533.18	485.37
-530.81	428.03
-528.45	-399.35
-526.08	477.18
-523.72	716.79
-521.35	749.56
-518.99	536.57
-516.63	428.03
-514.27	532.47
-511.90	555.00
-509.54	638.97
-507.19	417.79
-504.83	767.99
-502.47	413.69
-500.11	815.09
-497.76	614.39
-495.40	714.74
-493.05	757.75
-490.70	837.62
-488.35	663.54
-486.00	638.97
-483.65	745.46
-481.30	942.07
-478.95	802.80
-476.60	651.25
-474.25	368.63
-471.91	608.25
-469.56	778.23
-467.22	929.78
-464.88	688.12
-462.53	743.41
-460.19	753.65
-457.85	1056.75
-455.51	624.63
-453.17	-5238.70
-450.84	475.13
-448.50	747.51
-446.16	630.77
-443.83	821.24
-441.49	819.19
-439.16	880.63
-436.83	749.56
-434.50	1071.09
-432.16	950.26
-429.83	770.04
-427.50	1036.27
-425.18	800.76
-422.85	1099.76
-420.52	813.04
-418.20	800.76
-415.87	874.48
-413.55	817.14
-411.22	657.40
-408.90	782.32
-406.58	786.42
-404.26	604.15
-401.94	688.12
-399.62	727.03
-397.30	727.03
-394.99	886.77
-392.67	657.40
-390.35	690.17
-388.04	763.89
-385.73	688.12
-383.41	362.49
-381.10	962.55
-378.79	638.97
-376.48	688.12
-374.17	688.12
-371.86	667.64
-369.55	518.14
-367.25	616.44
-364.94	792.56
-362.64	743.41
-360.33	757.75
-358.03	563.19
-355.73	624.63
-353.42	636.92
-351.12	815.09
-348.82	673.78
-346.52	849.91
-344.23	448.51
-341.93	856.05
-339.63	595.96
-337.34	808.95
-335.04	638.97
-332.75	800.76
-330.45	860.15
-328.16	788.47
-325.87	571.38
-323.58	659.45
-321.29	692.21
-319.00	595.96
-316.71	387.07
-314.42	421.88
-312.14	415.74
-309.85	235.52
-307.57	423.93
-305.28	323.58
-303.00	325.63
-300.72	561.14
-298.44	727.03
-296.16	487.42
-293.88	90.11
-291.60	430.07
-289.32	847.86
-287.04	485.37
-284.77	698.36
-282.49	458.75
-280.22	225.28
-277.94	612.34
-275.67	356.35
-273.40	681.97
-271.13	464.89
-268.85	511.99
-266.59	147.45
-264.32	319.48
-262.05	430.07
-259.78	282.62
-257.51	563.19
-255.25	595.96
-252.98	606.20
-250.72	528.38
-248.46	454.65
-246.20	319.48
-243.93	272.38
-241.67	-14.34
-239.41	331.77
-237.16	454.65
-234.90	503.80
-232.64	362.49
-230.38	505.85
-228.13	604.15
-225.87	360.44
-223.62	245.76
-221.37	245.76
-219.11	444.41
-216.86	243.71
-214.61	446.46
-212.36	462.84
-210.11	495.61
-207.87	112.64
-205.62	475.13
-203.37	194.56
-201.13	600.05
-198.88	354.30
-196.64	643.06
-194.39	493.56
-192.15	280.57
-189.91	501.75
-187.67	442.36
-185.43	43.01
-183.19	380.92
-180.95	368.63
-178.72	358.39
-176.48	372.73
-174.24	208.89
-172.01	344.06
-169.77	59.39
-167.54	595.96
-165.31	344.06
-163.08	276.48
-160.85	276.48
-158.62	456.70
-156.39	538.62
-154.16	284.67
-151.93	569.34
-149.70	497.66
-147.48	473.08
-145.25	346.11
-143.03	448.51
-140.81	442.36
-138.58	241.66
-136.36	569.34
-134.14	458.74
-131.92	356.35
-129.70	761.84
-127.48	362.49
-125.26	532.47
-123.05	454.65
-120.83	335.87
-118.62	499.70
-116.40	325.63
-114.19	313.34
-111.97	227.32
-109.76	284.67
-107.55	198.65
-105.34	530.42
-103.13	112.64
-100.92	354.30
-98.71	462.84
-96.51	561.14
-94.30	415.74
-92.09	436.22
-89.89	264.19
-87.69	577.53
-85.48	913.39
-83.28	374.78
-81.08	468.98
-78.88	612.34
-76.68	649.21
-74.48	368.63
-72.28	495.61
-70.08	681.97
-67.88	423.93
-65.69	516.09
-63.49	581.62
-61.30	616.44
-59.11	421.88
-56.91	434.17
-54.72	493.56
-52.53	473.08
-50.34	686.07
-48.15	589.82
-45.96	536.57
-43.77	509.94
-41.59	796.66
-39.40	276.48
-37.21	378.87
-35.03	370.68
-32.84	509.94
-30.66	577.53
-28.48	677.88
-26.30	632.82
-24.12	991.22
-21.94	1234.93
-19.76	1687.53
-17.58	3139.54
-15.40	5844.90
-13.22	10243.94
-11.05	15871.76
-8.87	21135.04
-6.70	27616.86
-4.52	31270.43
-2.35	29992.50
-0.18	31653.41
1.99	32452.11
4.16	30877.22
6.33	25593.47
8.50	24405.64
10.67	17915.63
12.84	15404.82
15.00	12734.27
17.17	11095.89
19.33	9103.22
21.50	7104.40
23.66	5625.77
25.83	4331.45
27.99	2848.72
30.15	2222.05
32.31	1286.12
34.47	1044.46
36.63	1075.18
38.79	837.62
40.94	528.38
43.10	395.26
45.25	471.03
47.41	542.71
49.56	645.11
51.72	352.25
53.87	421.88
56.02	573.43
58.17	522.23
60.32	249.85
62.47	438.27
64.62	378.87
66.77	612.34
68.92	389.11
71.06	653.30
73.21	315.39
75.35	542.71
77.50	423.93
79.64	854.00
81.78	124.93
83.92	456.70
86.06	491.51
88.20	462.84
90.34	606.20
92.48	471.03
94.62	321.53
96.76	163.84
98.89	460.79
101.03	659.45
103.16	372.73
105.30	731.12
107.43	677.88
109.56	296.96
111.69	518.14
113.82	522.23
115.95	518.14
118.08	299.00
120.21	1083.38
122.34	630.77
124.47	468.98
126.59	630.77
128.72	378.87
130.84	757.75
132.97	432.12
135.09	403.45
137.21	446.46
139.33	311.29
141.45	499.70
143.57	493.56
145.69	323.58
147.81	679.93
149.93	536.57
152.05	223.23
154.16	669.69
156.28	550.90
158.39	536.57
160.51	696.31
162.62	569.34
164.73	823.28
166.85	606.20
168.96	466.94
171.07	565.24
173.18	464.89
175.28	370.68
177.39	231.42
179.50	372.73
181.61	960.50
183.71	614.39
185.82	493.56
187.92	475.13
190.02	636.92
192.13	397.31
194.23	425.98
196.33	411.64
198.43	647.16
200.53	698.36
202.63	811.00
204.72	278.52
206.82	557.05
208.92	159.74
211.01	385.02
213.11	444.41
215.20	448.51
217.30	356.35
219.39	716.79
221.48	561.14
223.57	495.61
225.66	802.80
227.75	227.32
229.84	598.01
231.93	362.49
234.02	581.62
236.10	530.42
238.19	585.72
240.28	368.63
242.36	727.03
244.44	282.62
246.53	571.38
248.61	849.91
250.69	464.89
252.77	991.22
254.85	1034.22
256.93	985.07
259.01	1089.52
261.09	1157.10
263.16	1404.91
265.24	1355.76
267.32	1624.04
269.39	2029.54
271.46	1943.52
273.54	2293.72
275.61	2220.00
277.68	2168.80
279.75	2285.53
281.82	2379.74
283.89	2459.61
285.96	2160.61
288.03	2301.92
290.10	2469.85
292.16	2672.60
294.23	2375.64
296.29	2648.02
298.36	2541.53
300.42	2095.07
302.49	2303.96
304.55	2656.22
306.61	2316.25
308.67	1019.89
310.73	2256.86
312.79	2308.06
314.85	2062.30
316.90	2250.72
318.96	2205.66
321.02	2389.98
323.07	2070.50
325.13	2103.26
327.18	2088.93
329.24	2441.18
331.29	1912.80
333.34	2373.60
335.39	2066.40
337.44	2099.17
339.49	2222.05
341.54	2424.80
343.59	1904.61
345.64	2443.23
347.68	2320.35
349.73	2101.22
351.77	1929.19
353.82	2289.63
355.86	2062.30
357.90	2136.03
359.95	2142.18
361.99	2244.57
364.03	2500.57
366.07	2314.20
368.11	1691.62
370.15	2336.73
372.19	2031.58
374.22	2021.35
376.26	2478.04
378.29	2330.59
380.33	2031.58
382.36	2201.57
384.40	2355.16
386.43	188.41
388.46	2021.35
390.49	2285.53
392.52	2166.75
394.55	2314.20
396.58	2455.51
398.61	2240.48
400.64	2222.05
402.67	2510.81
404.69	2701.27
406.72	2265.05
408.74	2875.35
410.77	2707.41
412.79	2820.05
414.81	2707.41
416.84	2865.11
418.86	2953.17
420.88	3092.43
422.90	3123.15
424.92	3282.89
426.94	3311.57
428.95	3555.27
430.97	3577.80
432.99	3598.28
435.00	3880.90
437.02	3954.63
439.03	3862.47
441.04	3833.80
443.06	3909.57
445.07	3342.28
447.08	3350.48
449.09	3387.34
451.10	3430.35
453.11	3416.01
455.12	3133.39
457.13	3041.23
459.13	3008.47
461.14	2836.44
463.14	2818.01
465.15	2619.35
467.15	2645.98
469.16	2496.47
471.16	2367.45
473.16	2521.05
475.16	2439.13
477.16	2490.33
479.16	2588.63
481.16	2361.31
483.16	2480.09
485.16	2596.82
487.15	2269.15
489.15	2529.24
491.15	2439.13
493.14	2437.08
495.14	2445.27
497.13	2224.09
499.12	2465.75
501.11	2435.03
503.11	2146.27
505.10	2562.01
507.09	2498.52
509.07	2095.07
511.06	2181.09
513.05	1820.64
515.04	1929.19
517.02	2148.32
519.01	2299.87
521.00	1972.19
522.98	2138.08
524.96	2174.94
526.95	2297.82
528.93	2236.38
530.91	2238.43
532.89	2242.53
534.87	2418.65
536.85	2090.98
538.83	1894.37
540.81	2256.86
542.78	2050.02
544.76	1896.42
546.74	1908.71
548.71	2127.84
550.69	2109.41
552.66	2213.85
554.63	2111.46
556.60	2230.24
558.58	1884.13
560.55	1910.75
562.52	2322.40
564.49	2064.35
566.46	2277.34
568.42	2152.42
570.39	2269.15
572.36	2179.04
574.32	2000.87
576.29	2263.01
578.25	2349.02
580.22	1693.67
582.18	2052.06
584.14	2031.58
586.11	2035.68
588.07	2242.53
590.03	1896.42
591.99	1843.17
593.95	2039.78
595.90	2240.48
597.86	2004.96
599.82	2045.92
601.78	2066.40
603.73	1910.75
605.69	1826.79
607.64	2086.88
609.59	2099.17
611.55	1648.61
613.50	2072.54
615.45	1939.43
617.40	1865.70
619.35	1964.00
621.30	2007.01
623.25	2074.59
625.20	2258.91
627.15	2531.29
629.09	2017.25
631.04	1849.32
632.98	2113.50
634.93	1830.88
636.87	1943.52
638.82	1826.79
640.76	1679.33
642.70	1810.40
644.64	2113.50
646.58	1982.43
648.52	2027.49
650.46	2009.06
652.40	1845.22
654.34	1746.92
656.27	1884.13
658.21	1832.93
660.15	1828.84
662.08	2035.68
664.02	1871.84
665.95	2050.02
667.88	1783.78
669.82	1777.64
671.75	1748.97
673.68	1853.41
675.61	2287.58
677.54	2031.59
679.47	2015.20
681.40	1923.04
683.32	1990.63
685.25	1890.28
687.18	1853.41
689.10	1705.96
691.03	2060.26
692.95	1826.79
694.87	1789.92
696.80	1886.18
698.72	1968.10
700.64	1953.76
702.56	1771.49
704.48	1421.29
706.40	1918.95
708.32	2035.68
710.24	1976.29
712.16	1726.44
714.07	2097.12
715.99	1957.86
717.90	1863.65
719.82	2113.50
721.73	1857.51
723.65	1845.22
725.56	1994.72
727.47	1998.82
729.38	1912.80
731.29	2007.01
733.20	2015.20
735.11	2000.87
737.02	1900.51
738.93	1841.12
740.84	2068.45
742.74	1900.52
744.65	1867.75
746.55	1695.72
748.46	1902.56
750.36	1972.19
752.27	1863.65
754.17	1927.14
756.07	1873.89
757.97	1812.45
759.87	1894.37
761.77	1990.63
763.67	2002.91
765.57	1785.83
767.47	2082.78
769.37	1990.63
771.26	2009.06
773.16	1720.29
775.06	2107.36
776.95	1984.48
778.84	1867.75
780.74	1898.47
782.63	1931.23
784.52	2111.46
786.41	1830.88
788.30	2248.67
790.19	2090.98
792.08	1877.99
793.97	2039.78
795.86	2084.83
797.75	2052.06
799.63	1976.29
801.52	1910.75
803.41	1849.32
805.29	2293.73
807.18	1984.48
809.06	2361.31
810.94	2273.25
812.82	2242.53
814.70	2119.65
816.59	2465.75
818.47	2271.20
820.35	2410.46
822.22	2351.07
824.10	2492.38
825.98	2037.73
827.86	2023.39
829.73	2410.46
831.61	2148.32
833.48	2156.51
835.36	2555.86
837.23	2404.32
839.10	2346.97
840.98	2172.89
842.85	2365.40
844.72	2531.29
846.59	2291.68
848.46	2916.31
850.33	3018.71
852.20	2512.86
854.06	3119.06
855.93	3305.42
857.80	3391.44
859.66	4018.11
861.53	4493.24
863.39	4618.17
865.26	6107.04
867.12	6705.05
868.98	8894.33
870.84	10536.80
872.71	12390.21
874.57	13674.29
876.43	15277.85
878.29	15843.09
880.14	17137.40
882.00	16844.54
883.86	15912.72
885.72	15222.55
887.57	13023.03
889.43	12230.47
891.28	11136.85
893.14	9920.36
894.99	8679.29
896.84	7245.71
898.69	5935.01
900.55	5326.77
902.40	4495.29
904.25	3983.30
906.10	3620.81
907.95	3717.06
909.79	3291.09
911.64	3018.71
913.49	2848.72
915.34	2369.50
917.18	2162.66
919.03	2230.24
920.87	2336.73
922.71	2256.86
924.56	2017.25
926.40	1808.36
928.24	2322.40
930.08	2205.66
931.92	2015.20
933.76	2039.78
935.60	1976.29
937.44	2144.22
939.28	1943.52
941.12	2222.05
942.95	1753.06
944.79	1705.96
946.62	1990.63
948.46	1755.11
950.29	1732.58
952.13	1660.90
953.96	1894.37
955.79	1714.15
957.62	1998.82
959.46	1730.53
961.29	1689.57
963.12	1777.64
964.94	1845.22
966.77	1976.29
968.60	1716.20
970.43	1787.88
972.25	1824.74
974.08	1783.78
975.91	1781.73
977.73	1601.51
979.55	1765.35
981.38	1828.84
983.20	1642.47
985.02	1728.49
986.84	1877.99
988.66	1785.83
990.49	1886.18
992.30	1734.63
994.12	1808.36
995.94	1953.76
997.76	2066.40
999.58	2011.11
1001.39	2043.87
1003.21	2099.17
1005.02	2047.97
1006.84	1966.05
1008.65	2254.81
1010.47	2068.45
1012.28	2422.75
1014.09	2119.65
1015.90	2303.96
1017.71	2553.82
1019.52	2609.11
1021.33	1550.31
1023.14	2688.98
1024.95	2916.31
1026.76	2668.50
1028.56	3147.73
1030.37	3153.87
1032.18	3295.18
1033.98	3973.06
1035.79	3762.12
1037.59	4323.26
1039.39	4480.96
1041.20	4919.22
1043.00	5091.25
1044.80	5103.54
1046.60	5670.83
1048.40	5664.68
1050.20	5291.95
1052.00	5474.22
1053.80	4790.20
1055.59	4888.50
1057.39	5130.16
1059.19	4945.84
1060.98	4495.29
1062.78	4558.78
1064.57	4435.90
1066.37	4669.37
1068.16	4839.35
1069.95	4849.59
1071.75	5109.68
1073.54	5341.10
1075.33	5658.54
1077.12	5605.29
1078.91	6203.30
1080.70	5959.59
1082.48	6891.41
1084.27	6924.18
1086.06	7294.86
1087.85	6842.26
1089.63	7212.95
1091.42	7235.47
1093.20	6666.14
1094.99	6123.43
1096.77	6180.77
1098.55	5887.91
1100.33	5367.73
1102.12	4939.70
1103.90	4587.45
1105.68	4229.06
1107.46	3794.89
1109.24	3889.09
1111.01	3444.68
1112.79	3690.44
1114.57	3434.44
1116.35	2998.23
1118.12	3399.63
1119.90	3289.04
1121.67	2504.67
1123.45	2748.37
1125.22	2846.68
1126.99	2928.60
1128.77	2779.09
1130.54	2873.30
1132.31	2453.47
1134.08	2824.15
1135.85	2842.58
1137.62	2781.14
1139.39	2312.16
1141.15	2523.10
1142.92	2099.17
1144.69	2369.50
1146.46	2039.78
1148.22	2021.35
1149.99	2209.76
1151.75	1937.38
1153.51	2138.08
1155.28	1660.90
1157.04	2019.30
1158.80	2273.25
1160.56	1771.49
1162.32	2144.22
1164.08	1564.65
1165.84	1765.35
1167.60	2019.30
1169.36	1853.41
1171.12	1949.67
1172.88	2041.82
1174.63	1636.33
1176.39	1863.65
1178.14	1712.10
1179.90	1832.93
1181.65	2025.44
1183.41	1789.92
1185.16	1583.08
1186.91	1945.57
1188.66	1660.90
1190.41	1687.53
1192.16	1726.44
1193.91	1894.37
1195.66	1632.23
1197.41	1646.57
1199.16	1775.59
1200.91	1671.14
1202.66	1572.84
1204.40	1732.58
1206.15	1894.37
1207.89	1722.34
1209.64	1685.48
1211.38	1552.36
1213.12	1654.76
1214.87	1275.88
1216.61	1515.50
1218.35	1495.02
1220.09	1834.98
1221.83	1951.71
1223.57	1740.77
1225.31	1462.25
1227.05	1757.16
1228.79	1779.68
1230.52	1775.59
1232.26	1732.58
1234.00	2004.96
1235.73	1892.32
1237.47	1920.99
1239.20	1937.38
1240.94	1826.79
1242.67	1818.60
1244.40	1789.92
1246.13	2080.74
1247.86	1822.69
1249.60	1912.80
1251.33	1947.62
1253.06	2062.30
1254.78	2263.01
1256.51	2365.40
1258.24	2504.67
1259.97	2408.41
1261.69	2430.94
1263.42	2539.48
1265.15	2504.67
1266.87	2998.23
1268.59	2858.96
1270.32	3061.71
1272.04	3215.31
1273.76	3241.93
1275.49	3301.33
1277.21	3284.94
1278.93	3563.47
1280.65	3565.51
1282.37	3436.49
1284.09	3448.78
1285.81	3459.02
1287.52	3239.89
1289.24	2938.84
1290.96	2987.99
1292.67	2731.99
1294.39	3006.42
1296.10	2516.95
1297.82	2387.93
1299.53	2279.39
1301.24	2250.72
1302.96	2293.72
1304.67	2377.69
1306.38	2043.87
1308.09	2344.92
1309.80	1804.26
1311.51	2144.22
1313.22	2181.09
1314.93	1710.05
1316.64	2156.51
1318.34	2037.73
1320.05	2011.11
1321.75	1910.75
1323.46	2148.32
1325.17	1892.32
1326.87	2000.87
1328.57	1810.40
1330.28	1816.55
1331.98	1947.62
1333.68	2060.26
1335.38	1904.61
1337.08	1724.39
1338.78	1927.14
1340.48	2316.25
1342.18	2301.92
1343.88	2019.30
1345.58	1961.95
1347.28	2099.17
1348.97	1916.90
1350.67	1976.29
1352.36	1984.48
1354.06	2066.40
1355.75	2150.37
1357.45	1988.58
1359.14	2099.17
1360.83	2043.87
1362.53	2035.68
1364.22	2269.15
1365.91	2168.80
1367.60	2176.99
1369.29	2090.98
1370.98	2078.69
1372.67	2246.62
1374.35	2035.68
1376.04	2455.51
1377.73	2400.22
1379.41	2226.14
1381.10	2289.63
1382.79	2652.12
1384.47	2369.50
1386.15	2848.72
1387.84	2576.34
1389.52	2656.22
1391.20	2598.87
1392.88	2172.89
1394.57	2719.70
1396.25	2621.40
1397.93	2547.67
1399.61	2621.40
1401.28	2777.05
1402.96	2785.24
1404.64	2899.92
1406.32	2793.43
1407.99	2863.06
1409.67	3063.76
1411.35	2813.91
1413.02	2867.16
1414.70	3198.93
1416.37	3059.67
1418.04	3346.38
1419.71	3078.10
1421.39	3338.19
1423.06	3368.91
1424.73	3121.10
1426.40	3311.57
1428.07	3686.34
1429.74	3467.21
1431.41	3798.98
1433.08	3471.31
1434.74	3606.47
1436.41	3919.81
1438.08	4184.00
1439.74	4282.30
1441.41	4646.84
1443.07	5216.18
1444.74	5779.37
1446.40	6059.94
1448.06	6465.44
1449.72	6782.87
1451.39	6934.42
1453.05	7374.74
1454.71	7618.44
1456.37	7681.93
1458.03	7298.96
1459.69	7329.68
1461.35	7321.49
1463.00	6715.29
1464.66	6322.08
1466.32	5574.57
1467.97	5117.87
1469.63	4861.88
1471.28	4849.59
1472.94	4294.59
1474.59	4648.89
1476.25	4067.27
1477.90	4161.47
1479.55	4188.10
1481.20	3995.59
1482.85	4020.16
1484.50	2785.24
1486.15	3952.58
1487.80	3813.32
1489.45	3579.85
1491.10	3596.23
1492.75	3567.56
1494.40	3489.74
1496.04	3114.96
1497.69	3231.69
1499.33	3094.48
1500.98	2783.19
1502.62	2789.33
1504.27	2586.58
1505.91	2428.89
1507.55	2492.38
1509.19	2357.21
1510.84	2480.09
1512.48	2545.63
1514.12	2267.10
1515.76	2056.16
1517.40	2320.35
1519.04	2475.99
1520.67	2383.84
1522.31	2328.54
1523.95	1634.28
1525.59	1927.14
1527.22	2066.40
1528.86	1925.09
1530.49	1978.34
1532.13	1847.27
1533.76	1845.22
1535.39	2187.23
1537.03	2011.11
1538.66	1988.58
1540.29	1818.60
1541.92	2037.73
1543.55	2043.87
1545.18	1980.39
1546.81	1839.08
1548.44	2088.93
1550.07	2109.41
1551.70	2236.38
1553.32	2029.54
1554.95	1603.56
1556.58	1550.31
1558.20	1916.90
1559.83	1925.09
1561.45	1652.71
1563.07	1753.06
1564.70	1904.61
1566.32	1581.03
1567.94	2004.96
1569.56	1458.15
1571.19	2086.88
1572.81	1722.34
1574.43	1810.40
1576.05	1886.18
1577.66	2047.97
1579.28	1484.78
1580.90	1370.09
1582.52	962.55
1584.14	1859.56
1585.75	2011.11
1587.37	1679.33
1588.98	1734.63
1590.60	1982.43
1592.21	1896.42
1593.82	1703.91
1595.44	1701.86
1597.05	1683.43
1598.66	2017.25
1600.27	1533.93
1601.88	1599.46
1603.49	17702.64
1605.10	1818.60
1606.71	2754.52
1608.32	1507.31
1609.93	1798.12
1611.54	2015.20
1613.14	1689.57
1614.75	1916.90
1616.36	2011.11
1617.96	2004.96
1619.57	2015.20
1621.17	1685.48
1622.77	1865.70
1624.38	1857.51
1625.98	1861.60
1627.58	1738.73
1629.18	1822.69
1630.78	1791.97
1632.38	1476.59
1633.98	1703.91
1635.58	2142.18
1637.18	2129.89
1638.78	2144.22
1640.38	1830.88
1641.98	1863.65
1643.57	1914.85
1645.17	1947.62
1646.76	1877.99
1648.36	1550.31
1649.95	1812.45
1651.55	1896.42
1653.14	1798.12
1654.73	1861.60
1656.33	2099.17
1657.92	1656.81
1659.51	1816.55
1661.10	1621.99
1662.69	1810.40
1664.28	1884.13
1665.87	1621.99
1667.46	1828.84
1669.05	1789.92
1670.63	1771.49
1672.22	1583.08
1673.81	1644.52
1675.39	1546.22
1676.98	1650.66
1678.56	1615.85
1680.15	1871.84
1681.73	1812.45
1683.31	1673.19
1684.90	2031.59
1686.48	1644.52
1688.06	1648.61
1689.64	1726.44
1691.22	1509.35
1692.80	1683.43
1694.38	1693.67
1695.96	1882.08
1697.54	1794.02
1699.12	1679.33
1700.69	1736.68
1702.27	1603.56
1703.85	1202.16
1705.42	1581.03
1707.00	1402.86
1708.57	1521.64
1710.15	1429.48
1711.72	1374.19
1713.29	1660.90
1714.87	1468.39
1716.44	1634.28
1718.01	1669.09
1719.58	1372.14
1721.15	1320.94
1722.72	1558.50
1724.29	1443.82
1725.86	1507.31
1727.43	1388.52
1729.00	1572.84
1730.56	1359.85
1732.13	1275.88
1733.70	1288.17
1735.26	1429.48
1736.83	1425.39
1738.39	1388.52
1739.96	1814.50
1741.52	1421.29
1743.08	1159.15
1744.65	1030.13
1746.21	1427.43
1747.77	1345.52
1749.33	1454.06
1750.89	1073.14
1752.45	1347.56
1754.01	1118.19
1755.57	1198.06
1757.13	1232.88
1758.69	1437.67
1760.24	1054.70
1761.80	1030.13
1763.36	1157.10
1764.91	1452.01
1766.47	1099.76
1768.02	1351.66
1769.58	1294.32
1771.13	1386.47
1772.68	1376.23
1774.24	1380.33
1775.79	1007.60
1777.34	1335.28
1778.89	1366.00
1780.44	1230.83
1781.99	1032.18
1783.54	1220.59
1785.09	1236.97
1786.64	1165.29
1788.19	1116.14
1789.73	964.59
1791.28	972.79
1792.83	1501.16
1794.37	1118.19
1795.92	1417.19
1797.46	1286.12
1799.01	1312.75
1800.55	1232.88
1802.09	1214.45
1803.64	1136.62
1805.18	1167.34
1806.72	1073.14
1808.26	1105.90
1809.80	1196.01
1811.34	1097.71
1812.88	1249.26
1814.42	1462.25
1815.96	1316.84
1817.50	1296.36
1819.04	1425.39
1820.57	890.87
1822.11	1382.38
1823.65	1214.45
1825.18	1249.26
1826.72	1325.04
1828.25	1245.16
1829.78	1216.49
1831.32	1021.94
1832.85	1165.29
1834.38	1110.00
1835.92	1187.82
1837.45	1101.81
1838.98	1167.34
1840.51	1224.69
1842.04	1155.05
1843.57	1189.87
1845.10	1296.36
1846.62	1372.14
1848.15	1083.38
1849.68	1400.81
1851.21	1589.22
1852.73	1181.68
1854.26	1202.16
1855.78	1318.89
1857.31	1376.24
1858.83	1312.75
1860.36	1345.52
1861.88	1050.61
1863.40	1482.73
1864.92	1173.49
1866.45	1527.78
1867.97	931.83
1869.49	1193.97
1871.01	1218.54
1872.53	1429.48
1874.05	1144.81
1875.57	1288.17
1877.08	1126.38
1878.60	1239.02
1880.12	1363.95
1881.64	1089.52
1883.15	1042.42
1884.67	1048.56
1886.18	1279.98
1887.70	1097.71
1889.21	950.26
1890.72	1171.44
1892.24	1220.59
1893.75	972.79
1895.26	1179.63
1896.77	1132.53
1898.28	1118.19
1899.79	1105.90
1901.30	1054.70
1902.81	1030.13
1904.32	1040.37
1905.83	1112.05
1907.34	997.36
1908.85	1271.79
1910.35	1279.98
1911.86	1353.71
1913.37	1185.77
1914.87	1222.64
1916.38	1183.73
1917.88	1165.29
1919.39	1001.46
1920.89	1263.60
1922.39	995.31
1923.89	974.83
1925.40	1208.30
1926.90	1056.75
1928.40	1101.81
1929.90	1095.66
1931.40	1198.06
1932.90	1202.16
1934.40	1105.90
1935.90	1196.01
1937.39	1134.57
1938.89	1527.78
1940.39	1245.16
1941.89	1316.84
1943.38	1146.86
1944.88	1187.82
1946.37	974.83
1947.87	1130.48
1949.36	1042.42
1950.85	1028.08
1952.35	1105.90
1953.84	851.95
1955.33	1251.31
1956.82	944.11
1958.31	1126.38
1959.80	1308.65
1961.29	1202.16
1962.78	905.20
1964.27	1144.81
1965.76	1034.22
1967.25	946.16
1968.74	1490.92
1970.22	1249.26
1971.71	1087.47
1973.20	1058.80
1974.68	1040.37
1976.17	751.60
1977.65	1228.78
1979.14	899.06
1980.62	1216.49
1982.10	1171.44
1983.58	1241.07
1985.07	1066.99
1986.55	999.41
1988.03	2217.95
1989.51	1150.96
1990.99	1157.10
1992.47	1167.34
1993.95	1511.40
1995.43	978.93
1996.91	1148.91
1998.38	1165.29
1999.86	1437.67
2001.34	1153.01
2002.81	1026.03
2004.29	1128.43
2005.76	1275.88
2007.24	1112.05
2008.71	968.69
2010.19	1198.06
2011.66	1257.45
2013.13	1103.86
2014.60	1148.91
2016.08	870.39
2017.55	1052.66
2019.02	1167.34
2020.49	1279.98
2021.96	1007.60
2023.43	1273.84
2024.90	1026.03
2026.36	829.43
2027.83	960.50
2029.30	1052.66
2030.77	954.35
2032.23	1220.59
2033.70	1167.34
2035.16	929.78
2036.63	1155.05
2038.09	1175.53
2039.56	1325.04
2041.02	1349.61
2042.48	1259.50
2043.95	1038.32
2045.41	1265.64
2046.87	1228.78
2048.33	1071.09
2049.79	1058.80
2051.25	1181.68
2052.71	1122.29
2054.17	1257.45
2055.63	1126.38
2057.09	1171.44
2058.54	1038.32
2060.00	765.94
2061.46	1148.91
2062.91	1337.32
2064.37	1136.62
2065.82	880.63
2067.28	1232.88
2068.73	886.77
2070.19	1177.58
2071.64	1169.39
2073.09	1333.23
2074.54	1118.19
2076.00	1066.99
2077.45	1120.24
2078.90	1187.82
2080.35	1212.40
2081.80	866.29
2083.25	1114.09
2084.70	1304.56
2086.14	1198.06
2087.59	1071.09
2089.04	1243.12
2090.49	1003.50
2091.93	1048.56
2093.38	1341.42
2094.83	1169.39
2096.27	1126.38
2097.71	1157.10
2099.16	944.11
2100.60	1069.04
2102.05	1253.36
2103.49	1101.81
2104.93	972.79
2106.37	1112.05
2107.81	1138.67
2109.25	1095.66
2110.69	1464.30
2112.13	1040.37
2113.57	1122.29
2115.01	901.11
2116.45	1095.66
2117.89	1003.50
2119.33	1232.88
2120.76	989.17
2122.20	997.36
2123.63	1169.39
2125.07	1066.99
2126.51	983.03
2127.94	1095.66
2129.37	1097.71
2130.81	1159.15
2132.24	1249.26
2133.67	1114.10
2135.11	1112.05
2136.54	927.73
2137.97	1007.60
2139.40	1241.07
2140.83	976.88
2142.26	1056.75
2143.69	1009.65
2145.12	1066.99
2146.55	1112.05
2147.97	792.56
2149.40	1220.59
2150.83	1148.91
2152.25	1273.84
2153.68	1056.75
2155.11	1265.64
2156.53	1308.65
2157.96	1060.85
2159.38	1503.21
2160.80	899.06
2162.23	937.97
2163.65	880.63
2165.07	1173.49
2166.49	1103.86
2167.91	1095.66
2169.33	940.02
2170.75	864.24
2172.17	970.74
2173.59	1232.88
2175.01	1071.09
2176.43	1017.84
2177.85	1236.97
2179.27	870.39
2180.68	1130.48
2182.10	804.85
2183.52	1032.18
2184.93	983.02
2186.35	-1609.70
2187.76	1042.42
2189.18	1085.42
2190.59	864.24
2192.00	1048.56
2193.42	854.00
2194.83	1200.11
2196.24	1374.19
2197.65	946.16
2199.06	-1302.51
2200.47	956.40
2201.88	661.49
2203.29	907.25
2204.70	1062.90
2206.11	1021.94
2207.52	1060.85
2208.93	983.02
2210.33	1101.81
2211.74	1214.45
2213.15	1019.89
2214.55	1093.62
2215.96	1196.01
2217.36	862.19
2218.77	899.06
2220.17	923.63
2221.57	923.63
2222.98	749.56
2224.38	886.77
2225.78	1026.03
2227.18	1136.62
2228.58	1153.01
2229.99	962.55
2231.39	905.20
2232.79	749.56
2234.18	892.91
2235.58	1023.98
2236.98	1013.74
2238.38	849.91
2239.78	903.15
2241.17	1363.95
2242.57	1138.67
2243.97	829.43
2245.36	1241.07
2246.76	1075.18
2248.15	845.81
2249.55	833.52
2250.94	1189.87
2252.33	1034.22
2253.73	1081.33
2255.12	944.11
2256.51	1093.62
2257.90	1105.90
2259.29	780.28
2260.68	702.45
2262.07	1116.14
2263.46	874.48
2264.85	882.67
2266.24	860.15
2267.63	1023.98
2269.02	1073.14
2270.40	978.93
2271.79	1048.56
2273.18	1202.16
2274.56	911.35
2275.95	823.28
2277.33	1013.74
2278.72	1114.09
2280.10	931.83
2281.49	958.45
2282.87	1234.93
2284.25	940.02
2285.63	1019.89
2287.02	1062.90
2288.40	1239.02
2289.78	942.07
2291.16	1030.13
2292.54	1021.94
2293.92	974.83
2295.30	1255.40
2296.68	978.93
2298.05	1120.24
2299.43	813.04
2300.81	800.76
2302.19	897.01
2303.56	956.40
2304.94	542.71
2306.31	1134.57
2307.69	835.57
2309.06	1218.54
2310.44	983.02
2311.81	970.74
2313.19	1138.67
2314.56	788.47
2315.93	964.59
2317.30	886.77
2318.67	1069.04
2320.04	1077.23
2321.41	1171.44
2322.78	1054.70
2324.15	1105.90
2325.52	763.89
2326.89	876.53
2328.26	755.70
2329.63	1056.75
2331.00	776.18
2332.36	880.63
2333.73	862.19
2335.09	860.15
2336.46	1140.72
2337.83	628.73
2339.19	811.00
2340.55	843.76
2341.92	1001.46
2343.28	780.28
2344.64	1038.32
2346.01	821.24
2347.37	864.24
2348.73	544.76
2350.09	788.47
2351.45	954.35
2352.81	634.87
2354.17	-5042.10
2355.53	952.31
2356.89	702.45
2358.25	851.95
2359.61	653.30
2360.96	856.05
2362.32	1060.85
2363.68	921.59
2365.03	999.41
2366.39	976.88
2367.74	815.09
2369.10	923.63
2370.45	870.39
2371.81	909.30
2373.16	653.30
2374.51	946.16
2375.86	788.47
2377.22	1046.51
2378.57	544.76
2379.92	712.69
2381.27	860.15
2382.62	798.71
2383.97	688.12
2385.32	921.59
2386.67	765.94
2388.02	794.61
2389.37	868.34
2390.71	1091.57
2392.06	794.61
2393.41	878.58
2394.75	772.08
2396.10	997.36
2397.44	956.40
2398.79	1058.80
2400.13	737.27
2401.48	854.00
2402.82	792.56
2404.17	671.73
2405.51	1091.57
2406.85	790.52
2408.19	870.39
2409.53	899.06
2410.87	790.52
2412.22	690.17
2413.56	704.50
2414.89	823.28
2416.23	1228.78
2417.57	704.50
2418.91	925.68
2420.25	1073.14
2421.59	942.07
2422.92	684.02
2424.26	688.12
2425.60	741.36
2426.93	913.39
2428.27	860.15
2429.60	849.91
2430.94	567.29
2432.27	761.84
2433.60	786.42
2434.94	790.52
2436.27	1144.81
2437.60	808.95
2438.93	757.75
2440.27	878.58
2441.60	1048.56
2442.93	929.78
2444.26	1253.36
2445.59	522.23
2446.92	843.76
2448.24	669.69
2449.57	737.27
2450.90	698.36
2452.23	786.42
2453.55	997.36
2454.88	616.44
2456.21	956.40
2457.53	1093.62
2458.86	880.63
2460.18	727.03
2461.51	497.66
2462.83	688.12
2464.15	686.07
2465.48	788.47
2466.80	866.29
2468.12	583.67
2469.44	917.49
2470.76	1198.06
2472.09	825.33
2473.41	790.52
2474.73	776.18
2476.05	841.72
2477.36	1052.66
2478.68	559.10
2480.00	749.56
2481.32	978.93
2482.64	948.21
2483.95	819.19
2485.27	1060.85
2486.59	772.08
2487.90	925.68
2489.22	774.13
2490.53	882.67
2491.85	1042.42
2493.16	841.72
2494.47	872.43
2495.79	505.85
2497.10	849.91
2498.41	933.87
2499.72	819.19
2501.03	956.40
2502.35	968.69
2503.66	911.35
2504.97	858.10
2506.28	780.28
2507.59	935.92
2508.89	643.06
2510.20	854.00
2511.51	522.23
2512.82	870.39
2514.12	-155.65
2515.43	868.34
2516.74	749.56
2518.04	1427.43
2519.35	833.52
2520.65	870.39
2521.96	1038.32
2523.26	610.29
2524.57	698.36
2525.87	972.79
2527.17	966.64
2528.47	931.83
2529.78	995.31
2531.08	714.74
2532.38	1073.14
2533.68	1040.37
2534.98	931.83
2536.28	923.63
2537.58	1042.42
2538.88	966.64
2540.18	825.33
2541.47	1120.24
2542.77	1200.11
2544.07	860.15
2545.37	851.96
2546.66	989.17
2547.96	968.69
2549.25	-1052.66
2550.55	1112.05
2551.84	915.44
2553.14	751.60
2554.43	894.96
2555.72	829.43
2557.02	817.14
2558.31	829.43
2559.60	808.95
2560.89	1126.38
2562.18	1062.90
2563.48	1138.67
2564.77	1110.00
2566.06	987.12
2567.35	1060.85
2568.63	980.98
2569.92	960.50
2571.21	1103.86
2572.50	569.34
2573.79	1046.51
2575.07	1089.52
2576.36	860.15
2577.65	544.76
2578.93	944.11
2580.22	1122.29
2581.50	1132.53
2582.79	2187.23
2584.07	974.83
2585.36	757.75
2586.64	1017.84
2587.92	1015.79
2589.20	796.66
2590.49	899.06
2591.77	915.44
2593.05	940.02
2594.33	655.35
2595.61	907.25
2596.89	821.24
2598.17	925.68
2599.45	1241.07
2600.73	1062.90
2602.00	929.78
2603.28	856.05
2604.56	956.40
2605.84	815.09
2607.11	1013.74
2608.39	831.48
2609.67	1122.29
2610.94	1015.79
2612.22	868.34
2613.49	434.17
2614.76	931.83
2616.04	1136.62
2617.31	794.61
2618.58	851.95
2619.86	851.95
2621.13	985.07
2622.40	921.59
2623.67	950.26
2624.94	714.74
2626.21	966.64
2627.48	583.67
2628.75	970.74
2630.02	892.91
2631.29	946.16
2632.56	907.25
2633.82	794.61
2635.09	919.54
2636.36	1017.84
2637.63	722.93
2638.89	1058.80
2640.16	974.83
2641.42	1126.38
2642.69	1380.33
2643.95	1021.94
2645.22	962.55
2646.48	776.18
2647.74	1009.65
2649.01	950.26
2650.27	890.87
2651.53	819.19
2652.79	962.55
2654.05	1116.14
2655.31	944.11
2656.57	864.24
2657.83	841.72
2659.09	1017.84
2660.35	835.57
2661.61	1056.75
2662.87	2842.58
2664.13	993.26
2665.38	962.55
2666.64	1312.75
2667.90	784.37
2669.15	1396.71
2670.41	962.55
2671.67	858.10
2672.92	987.12
2674.17	1157.10
2675.43	1294.32
2676.68	1355.76
2677.94	1265.64
2679.19	1218.54
2680.44	1091.57
2681.69	1193.97
2682.95	1505.26
2684.20	999.41
2685.45	1333.23
2686.70	1460.20
2687.95	1275.88
2689.20	1099.76
2690.45	1277.93
2691.70	1353.71
2692.94	989.17
2694.19	1464.30
2695.44	1482.73
2696.69	1210.35
2697.93	1325.04
2699.18	1804.26
2700.43	1705.96
2701.67	1896.42
2702.92	1830.88
2704.16	1986.53
2705.41	2150.37
2706.65	1888.23
2707.89	1832.93
2709.14	2238.43
2710.38	2011.11
2711.62	2537.43
2712.86	2484.19
2714.11	2420.70
2715.35	2566.10
2716.59	2381.79
2717.83	2365.40
2719.07	2496.47
2720.31	2678.74
2721.55	3012.56
2722.78	2856.92
2724.02	2861.01
2725.26	2953.17
2726.50	3063.76
2727.73	3178.45
2728.97	2930.64
2730.21	2936.79
2731.44	3037.14
2732.68	2723.80
2733.91	2846.68
2735.15	2830.29
2736.38	2715.61
2737.62	2994.13
2738.85	2592.73
2740.08	2688.98
2741.32	2447.32
2742.55	2742.23
2743.78	2666.46
2745.01	2580.44
2746.24	2863.06
2747.47	2623.45
2748.70	2553.82
2749.93	2639.83
2751.16	2744.28
2752.39	2633.69
2753.62	2818.00
2754.85	2772.95
2756.08	2490.33
2757.30	2740.18
2758.53	2338.78
2759.76	2664.41
2760.98	2701.27
2762.21	2662.36
2763.43	2695.13
2764.66	2422.75
2765.88	2654.17
2767.11	2418.65
2768.33	2334.68
2769.55	2357.21
2770.78	2570.20
2772.00	2131.94
2773.22	2215.90
2774.44	2250.72
2775.67	2383.84
2776.89	2123.74
2778.11	2017.25
2779.33	2131.94
2780.55	2322.40
2781.77	2115.55
2782.99	2389.98
2784.20	2324.44
2785.42	2330.59
2786.64	2236.38
2787.86	2240.48
2789.07	2385.88
2790.29	1890.28
2791.51	2189.28
2792.72	2269.15
2793.94	1849.32
2795.15	2256.86
2796.37	2119.65
2797.58	2502.62
2798.80	2588.63
2800.01	2248.67
2801.22	2531.29
2802.44	2551.77
2803.65	2529.24
2804.86	2336.73
2806.07	2676.70
2807.28	2678.74
2808.49	2856.92
2809.70	2975.70
2810.91	2777.05
2812.12	2918.36
2813.33	3121.10
2814.54	3141.58
2815.75	3039.19
2816.96	3076.05
2818.16	2920.40
2819.37	3327.95
2820.58	3665.86
2821.78	3383.24
2822.99	3655.62
2824.20	3913.67
2825.40	3690.44
2826.61	4102.08
2827.81	3907.52
2829.01	4220.86
2830.22	4677.56
2831.42	4546.49
2832.62	4507.58
2833.83	4583.35
2835.03	5330.86
2836.23	5386.16
2837.43	5330.86
2838.63	5392.30
2839.83	5523.37
2841.03	5160.88
2842.23	5681.07
2843.43	5930.92
2844.63	6088.61
2845.83	6115.23
2847.03	5963.68
2848.22	6029.22
2849.42	6256.54
2850.62	6516.64
2851.81	6729.63
2853.01	6893.46
2854.21	7384.98
2855.40	7094.16
2856.60	6709.15
2857.79	7821.19
2858.99	7636.88
2860.18	8157.06
2861.37	8726.39
2862.57	9009.01
2863.76	9408.37
2864.95	9865.07
2866.14	9686.89
2867.33	11312.98
2868.52	12021.58
2869.72	13563.70
2870.91	14604.07
2872.10	15789.84
2873.28	16330.50
2874.47	16219.91
2875.66	13147.96
2876.85	20326.09
2878.04	21286.59
2879.23	20846.27
2880.41	22089.39
2881.60	22007.47
2882.79	22421.16
2883.97	23680.66
2885.16	23688.85
2886.34	23586.46
2887.53	23152.29
2888.71	22804.13
2889.90	22625.96
2891.08	22372.01
2892.26	22228.65
2893.45	21608.12
2894.63	21991.09
2895.81	21503.67
2896.99	21006.02
2898.17	20623.05
2899.36	20930.24
2900.54	20010.70
2901.72	18368.23
2902.90	19001.05
2904.08	18837.22
2905.26	18652.90
2906.43	18669.28
2907.61	18138.86
2908.79	18228.97
2909.97	18132.72
2911.14	17549.04
2912.32	17956.59
2913.50	18050.80
2914.67	17161.98
2915.85	18210.54
2917.02	18542.31
2918.20	19570.39
2919.37	20623.05
2920.55	21411.51
2921.72	20524.74
2922.90	24303.25
2924.07	25333.37
2925.24	28565.07
2926.41	30893.61
2927.58	31974.94
2928.76	34078.20
2929.93	35022.31
2931.10	37357.00
2932.27	37875.13
2933.44	38342.07
2934.61	39810.46
2935.78	33793.53
2936.95	38178.23
2938.11	37610.95
2939.28	37139.91
2940.45	34209.27
2941.62	33756.67
2942.78	30266.93
2943.95	29472.32
2945.12	28542.54
2946.28	27768.41
2947.45	25699.96
2948.61	23731.86
2949.78	23146.14
2950.94	21368.51
2952.10	20201.16
2953.27	18910.94
2954.43	18222.83
2955.59	16803.58
2956.76	16537.35
2957.92	15941.39
2959.08	15443.73
2960.24	14921.50
2961.40	14417.70
2962.56	14747.42
2963.72	14399.27
2964.88	14868.25
2966.04	14823.20
2967.20	14735.14
2968.36	15062.81
2969.52	15464.21
2970.67	15677.20
2971.83	15769.36
2972.99	17016.57
2974.14	16279.30
2975.30	17528.56
2976.46	15763.22
2977.61	17766.13
2978.77	17587.96
2979.92	16963.33
2981.08	17501.94
2982.23	17823.47
2983.38	17401.59
2984.54	17051.39
2985.69	16971.52
2986.84	16195.34
2987.99	14632.74
2989.15	14499.62
2990.30	13711.15
2991.45	11923.27
2992.60	12336.96
2993.75	11767.63
2994.90	11446.10
2996.05	10727.26
2997.20	9836.39
2998.35	9402.22
2999.49	8744.83
3000.64	8169.35
3001.79	7872.39
3002.94	7647.12
3004.08	7212.95
3005.23	7040.92
3006.38	6920.09
3007.52	6547.36
3008.67	6100.90
3009.81	6064.04
3010.96	5672.87
3012.10	5539.76
3013.25	5660.59
3014.39	5396.40
3015.53	5302.19
3016.67	5134.26
3017.82	5341.10
3018.96	5230.51
3020.10	4720.57
3021.24	4833.21
3022.38	5078.96
3023.52	4741.05
3024.66	4753.34
3025.80	4679.61
3026.94	4972.47
3028.08	4298.69
3029.22	4755.38
3030.36	4407.23
3031.50	4693.94
3032.63	4681.66
3033.77	4456.38
3034.91	4214.72
3036.04	4741.05
3037.18	4851.64
3038.32	4898.74
3039.45	4392.89
3040.59	4407.23
3041.72	4745.14
3042.86	4728.76
3043.99	4722.62
3045.12	4841.40
3046.26	4751.29
3047.39	4796.34
3048.52	4724.66
3049.65	4786.10
3050.78	4648.89
3051.92	4773.82
3053.05	4771.77
3054.18	4800.44
3055.31	4825.01
3056.44	4892.60
3057.57	5009.33
3058.70	4954.04
3059.82	4523.96
3060.95	4763.58
3062.08	4730.81
3063.21	4243.39
3064.34	4988.85
3065.46	5126.07
3066.59	5255.09
3067.71	5130.16
3068.84	5146.55
3069.97	5523.37
3071.09	5121.97
3072.22	5443.50
3073.34	5371.82
3074.46	5273.52
3075.59	5463.98
3076.71	5121.97
3077.83	5402.54
3078.96	5463.98
3080.08	5676.97
3081.20	5429.17
3082.32	5490.60
3083.44	5334.96
3084.56	5517.23
3085.68	5756.84
3086.80	5656.49
3087.92	5513.13
3089.04	5941.16
3090.16	5871.53
3091.28	5824.42
3092.40	5883.81
3093.51	5930.92
3094.63	5869.48
3095.75	6047.65
3096.87	5810.09
3097.98	5805.99
3099.10	6205.35
3100.21	5814.18
3101.33	6098.85
3102.44	6686.62
3103.56	5953.45
3104.67	6430.62
3105.79	6487.96
3106.90	6698.91
3108.01	6610.84
3109.12	6240.16
3110.24	6608.80
3111.35	6500.25
3112.46	6360.99
3113.57	7100.31
3114.68	6588.32
3115.79	6641.56
3116.90	7337.87
3118.01	7522.19
3119.12	7307.15
3120.23	7366.54
3121.34	6993.81
3122.45	7319.44
3123.56	7688.07
3124.66	7341.97
3125.77	7688.07
3126.88	7894.92
3127.98	8468.35
3129.09	8095.62
3130.20	8011.65
3131.30	7577.48
3132.41	8345.47
3133.51	8181.64
3134.61	8245.12
3135.72	8533.89
3136.82	8507.26
3137.93	8783.74
3139.03	8537.98
3140.13	8667.00
3141.23	8781.69
3142.33	8908.66
3143.44	8640.38
3144.54	8914.81
3145.64	8972.15
3146.74	8656.76
3147.84	9170.80
3148.94	9492.34
3150.04	9056.12
3151.14	9992.04
3152.23	9998.18
3153.33	9650.03
3154.43	10286.95
3155.53	9936.74
3156.63	10428.26
3157.72	10293.09
3158.82	10434.40
3159.91	10325.86
3161.01	10504.03
3162.11	10620.77
3163.20	10717.02
3164.30	10528.61
3165.39	11022.17
3166.48	10702.68
3167.58	10696.54
3168.67	10530.66
3169.76	10862.43
3170.86	11265.88
3171.95	11296.60
3173.04	11065.18
3174.13	11433.81
3175.22	11046.74
3176.31	11257.68
3177.40	10899.29
3178.49	12046.15
3179.58	11642.70
3180.67	11401.04
3181.76	12119.88
3182.85	12318.53
3183.94	11646.80
3185.03	12230.47
3186.11	10899.29
3187.20	12269.38
3188.29	11722.57
3189.37	12209.99
3190.46	12146.50
3191.55	11992.90
3192.63	11876.17
3193.72	11915.08
3194.80	12310.34
3195.89	12580.67
3196.97	12433.22
3198.05	12404.55
3199.14	12615.49
3200.22	12713.79
3201.30	12730.17
3202.38	12726.08
3203.47	12470.08
3204.55	12808.00
3205.63	12957.50
3206.71	12044.10
3207.79	12318.53
3208.87	13248.31
3209.95	13182.77
3211.03	13403.96
3212.11	13397.81
3213.19	12259.14
3214.27	13279.03
3215.34	13266.74
3216.42	13459.25
3217.50	13031.23
3218.58	13436.72
3219.65	13410.10
3220.73	13727.53
3221.80	13680.43
3222.88	13737.77
3223.96	13373.24
3225.03	14044.97
3226.10	13741.87
3227.18	14130.98
3228.25	13715.25
3229.33	14407.46
3230.40	13872.94
3231.47	14008.11
3232.54	14001.96
3233.62	14290.73
3234.69	14196.52
3235.76	14343.97
3236.83	14718.75
3237.90	14513.95
3238.97	14188.33
3240.04	13815.60
3241.11	14288.68
3242.18	14483.23
3243.25	14542.63
3244.32	12541.76
3245.39	14022.44
3246.45	14726.94
3247.52	14354.21
3248.59	14384.93
3249.66	14401.32
3250.72	14855.97
3251.79	14757.66
3252.85	14571.30
3253.92	14987.04
3254.98	14448.42
3256.05	14452.52
3257.11	14841.63
3258.18	14743.33
3259.24	14710.56
3260.30	14479.14
3261.37	14348.07
3262.43	14835.49
3263.49	14346.02
3264.55	14647.07
3265.62	14610.21
3266.68	14184.23
3267.74	14716.70
3268.80	14536.48
3269.86	14505.76
3270.92	14300.97
3271.98	14315.30
3273.04	14491.43
3274.10	14124.84
3275.16	14468.90
3276.21	14579.49
3277.27	13748.01
3278.33	14268.20
3279.39	13965.10
3280.44	14210.86
3281.50	14331.69
3282.56	13811.50
3283.61	13868.84
3284.67	13928.24
3285.72	14333.73
3286.78	13074.23
3287.83	14065.45
3288.88	14176.04
3289.94	14528.29
3290.99	13868.84
3292.04	12818.24
3293.10	14024.49
3294.15	13862.70
3295.20	14122.79
3296.25	13903.66
3297.30	13854.51
3298.36	13504.31
3299.41	14102.31
3300.46	14090.02
3301.51	13668.14
3302.56	13723.44
3303.61	13770.54
3304.65	13973.29
3305.70	13899.56
3306.75	13627.18
3307.80	13815.60
3308.85	13852.46
3309.89	13915.95
3310.94	14264.10
3311.99	13877.04
3313.03	13821.74
3314.08	13375.28
3315.12	13670.19
3316.17	13502.26
3317.21	13952.81
3318.26	14413.60
3319.30	13553.46
3320.35	14026.54
3321.39	14272.29
3322.43	14376.74
3323.48	14106.41
3324.52	14335.78
3325.56	14233.38
3326.60	13807.41
3327.64	14106.41
3328.68	14169.90
3329.73	13768.49
3330.77	14260.01
3331.81	14442.28
3332.85	14049.07
3333.88	14202.66
3334.92	13670.19
3335.96	14473.00
3337.00	14075.69
3338.04	14042.92
3339.08	14563.11
3340.11	14520.10
3341.15	13942.57
3342.19	14434.08
3343.22	14663.46
3344.26	14026.54
3345.30	14235.43
3346.33	14440.23
3347.37	14122.79
3348.40	14319.40
3349.43	13592.37
3350.47	14550.82
3351.50	14133.03
3352.54	13938.48
3353.57	14466.85
3354.60	14274.34
3355.63	14685.98
3356.67	14247.72
3357.70	14309.16
3358.73	12928.83
3359.76	14092.07
3360.79	14489.38
3361.82	14335.78
3362.85	14190.38
3363.88	13770.54
3364.91	14223.14
3365.94	14090.03
3366.97	14454.56
3367.99	14362.40
3369.02	14114.60
3370.05	13213.49
3371.08	14305.06
3372.10	13645.62
3373.13	14356.26
3374.16	14341.93
3375.18	13831.98
3376.21	14257.96
3377.23	14393.12
3378.26	14602.02
3379.28	14391.08
3380.31	13977.39
3381.33	14755.61
3382.35	14995.23
3383.38	14008.11
3384.40	14303.01
3385.42	13958.96
3386.45	14284.58
3387.47	14526.24
3388.49	14413.60
3389.51	13997.87
3390.53	14268.20
3391.55	13911.85
3392.57	14673.70
3393.59	14298.92
3394.61	14759.71
3395.63	14331.69
3396.65	14020.39
3397.67	13608.75
3398.69	14128.94
3399.70	13922.09
3400.72	14061.35
3401.74	14907.16
3402.76	13334.32
3403.77	13981.48
3404.79	14194.47
3405.80	14030.63
3406.82	13850.41
3407.83	13053.75
3408.85	13897.52
3409.86	14241.57
3410.88	14591.78
3411.89	14470.95
3412.91	14343.97
3413.92	14513.95
3414.93	14208.81
3415.94	14069.55
3416.96	13791.02
3417.97	13944.62
3418.98	13942.57
3419.99	17127.16
3421.00	14520.10
3422.01	14548.77
3423.02	14386.98
3424.03	13782.83
3425.04	14100.26
3426.05	14567.20
3427.06	14763.81
3428.07	14669.60
3429.08	14864.16
3430.09	14100.26
3431.09	14702.37
3432.10	14706.46
3433.11	14935.84
3434.12	14831.39
3435.12	14198.57
3436.13	14350.12
3437.13	14454.56
3438.14	14040.87
3439.14	14151.46
3440.15	13967.15
3441.15	14210.86
3442.16	13940.52
3443.16	13795.12
3444.16	13850.41
3445.17	13739.82
3446.17	13641.52
3447.17	13537.07
3448.17	13731.63
3449.18	13606.70
3450.18	14016.30
3451.18	14165.80
3452.18	14231.33
3453.18	13987.63
3454.18	14042.92
3455.18	14143.27
3456.18	14085.93
3457.18	13977.39
3458.18	14116.65
3459.17	12932.92
3460.17	13604.66
3461.17	13168.44
3462.17	13662.00
3463.17	13446.96
3464.16	13182.77
3465.16	13111.10
3466.15	12711.74
3467.15	13197.11
3468.15	12814.14
3469.14	13254.45
3470.14	12998.46
3471.13	12965.69
3472.13	13010.75
3473.12	12996.41
3474.11	12764.99
3475.11	12500.80
3476.10	12255.04
3477.09	12638.02
3478.08	12744.51
3479.08	12138.31
3480.07	11878.22
3481.06	12136.26
3482.05	11788.11
3483.04	11945.80
3484.03	11941.71
3485.02	11784.01
3486.01	12242.76
3487.00	11611.98
3487.99	11052.89
3488.98	11671.37
3489.97	11181.91
3490.95	11464.53
3491.94	11269.97
3492.93	11341.65
3493.92	11454.29
3494.90	10600.29
3495.89	10819.42
3496.88	10899.29
3497.86	10379.11
3498.85	10946.39
3499.83	10694.49
3500.82	10907.48
3501.80	10520.42
3502.79	10456.93
3503.77	10256.23
3504.75	10565.47
3505.74	10594.14
3506.72	10628.96
3507.70	10538.85
3508.68	10504.03
3509.67	10432.35
3510.65	10123.11
3511.63	10309.47
3512.61	10022.76
3513.59	10127.21
3514.57	9396.08
3515.55	9815.91
3516.53	9580.40
3517.51	10071.91
3518.49	9998.18
3519.47	10016.62
3520.45	9621.36
3521.42	9492.34
3522.40	9541.49
3523.38	9641.84
3524.36	9492.34
3525.33	9234.29
3526.31	9338.74
3527.29	9129.84
3528.26	9111.41
3529.24	9568.11
3530.21	9064.31
3531.19	8892.28
3532.16	9256.82
3533.14	8841.08
3534.11	9047.93
3535.08	8908.66
3536.06	9068.41
3537.03	8570.75
3538.00	8685.44
3538.98	8732.54
3539.95	8177.54
3540.92	8722.30
3541.89	8449.92
3542.86	8212.35
3543.83	8417.15
3544.80	7823.24
3545.77	7702.41
3546.74	7667.60
3547.71	7837.58
3548.68	7786.38
3549.65	7872.39
3550.62	7729.03
3551.59	7761.80
3552.56	7731.08
3553.52	7806.86
3554.49	7739.27
3555.46	7434.13
3556.42	7456.65
3557.39	7389.07
3558.36	7487.37
3559.32	6627.23
3560.29	7448.46
3561.25	6889.37
3562.22	6946.71
3563.18	7036.82
3564.15	6309.79
3565.11	6807.45
3566.07	6700.95
3567.04	7010.20
3568.00	6786.97
3568.96	6188.96
3569.92	6549.40
3570.89	6342.56
3571.85	6565.79
3572.81	6717.34
3573.77	6711.19
3574.73	6207.39
3575.69	6209.44
3576.65	6350.75
3577.61	5820.33
3578.57	5859.24
3579.53	6373.28
3580.49	5810.09
3581.45	5894.05
3582.40	5820.33
3583.36	5431.21
3584.32	5867.43
3585.28	5746.60
3586.23	5861.29
3587.19	5717.93
3588.15	5687.21
3589.10	5574.57
3590.06	5539.76
3591.01	5343.15
3591.97	5386.16
3592.92	5097.39
3593.88	5463.98
3594.83	5498.80
3595.78	5191.60
3596.74	5187.50
3597.69	5117.87
3598.64	5447.60
3599.60	5177.26
3600.55	4917.17
3601.50	4863.93
3602.45	5199.79
3603.40	5451.69
3604.35	5083.06
3605.31	4982.71
3606.26	4835.25
3607.21	4982.71
3608.16	5013.43
3609.10	4845.49
3610.05	4788.15
3611.00	5015.48
3611.95	4800.44
3612.90	4749.24
3613.85	4468.67
3614.79	4825.01
3615.74	4540.35
3616.69	4140.99
3617.63	4700.09
3618.58	4208.58
3619.53	4536.25
3620.47	4216.77
3621.42	4407.23
3622.36	4374.46
3623.31	4134.85
3624.25	4161.47
3625.20	4302.78
3626.14	4442.04
3627.08	3753.93
3628.03	3934.15
3628.97	4050.88
3629.91	4100.03
3630.85	4261.82
3631.80	4386.75
3632.74	4308.93
3633.68	4071.36
3634.62	3790.79
3635.56	3755.97
3636.50	4091.84
3637.44	3708.87
3638.38	3712.97
3639.32	3647.43
3640.26	3516.36
3641.20	3651.53
3642.14	3495.88
3643.08	3555.27
3644.01	3788.74
3644.95	3588.04
3645.89	3723.21
3646.83	3604.42
3647.76	3432.40
3648.70	3418.06
3649.63	3442.64
3650.57	3459.02
3651.51	3067.86
3652.44	3080.15
3653.38	3350.48
3654.31	3211.22
3655.24	3442.64
3656.18	3092.43
3657.11	3473.36
3658.05	3047.38
3658.98	3198.93
3659.91	3016.66
3660.84	2830.29
3661.78	3106.77
3662.71	2598.87
3663.64	2742.23
3664.57	3108.82
3665.50	2594.78
3666.43	2666.46
3667.36	2220.00
3668.29	2607.06
3669.22	2373.60
3670.15	2441.18
3671.08	2371.55
3672.01	2389.98
3672.94	2297.82
3673.86	2355.16
3674.79	2471.90
3675.72	1980.39
3676.65	2252.77
3677.57	2052.06
3678.50	2406.36
3679.43	2334.68
3680.35	2174.94
3681.28	2113.50
3682.20	2318.30
3683.13	1996.77
3684.05	1974.24
3684.98	1781.73
3685.90	1882.08
3686.83	1927.14
3687.75	2033.63
3688.67	1689.57
3689.60	1472.49
3690.52	1826.79
3691.44	1572.84
3692.36	1626.09
3693.28	1556.46
3694.21	1722.34
3695.13	1617.90
3696.05	1691.62
3696.97	1388.52
3697.89	1640.42
3698.81	1322.99
3699.73	1578.98
3700.65	1247.21
3701.57	1183.73
3702.48	1564.65
3703.40	1204.21
3704.32	1386.47
3705.24	1486.83
3706.16	1189.87
3707.07	1200.11
3707.99	1107.95
3708.91	1226.73
3709.82	1128.43
3710.74	1132.53
3711.66	1191.92
3712.57	1218.54
3713.49	1662.95
3714.40	880.63
3715.31	956.40
3716.23	1224.69
3717.14	1046.51
3718.06	1069.04
3718.97	894.96
3719.88	841.72
3720.80	1062.90
3721.71	0.00
3722.62	851.96
3723.53	0.00
3724.44	845.81
3725.35	0.00
3726.26	860.15
3727.18	200.70
3728.09	718.84
3729.00	940.02
3729.91	745.46
3730.81	935.92
3731.72	743.41
3732.63	727.03
3733.54	679.93
3734.45	874.48
3735.36	784.37
3736.26	1042.42
3737.17	716.79
3738.08	1009.65
3738.99	854.00
3739.89	692.21
3740.80	567.29
3741.70	667.64
3742.61	821.24
3743.51	798.71
3744.42	487.42
3745.32	448.51
3746.23	634.87
3747.13	692.21
3748.04	772.08
3748.94	528.38
3749.84	444.41
3750.74	540.66
3751.65	710.65
3752.55	487.42
3753.45	610.29
3754.35	442.36
3755.25	634.87
3756.16	569.34
3757.06	550.90
3757.96	632.82
3758.86	729.08
3759.76	567.29
3760.66	360.44
3761.55	583.67
3762.45	731.12
3763.35	536.57
3764.25	708.60
3765.15	669.69
3766.05	794.61
3766.94	776.18
3767.84	460.79
3768.74	417.79
3769.63	722.93
3770.53	618.49
3771.43	540.66
3772.32	585.72
3773.22	667.64
3774.11	380.92
3775.01	638.97
3775.90	475.13
3776.80	450.55
3777.69	671.73
3778.58	411.64
3779.48	274.43
3780.37	518.14
3781.26	600.05
3782.16	329.72
3783.05	1255.40
3783.94	571.38
3784.83	489.46
3785.72	860.15
3786.61	534.52
3787.50	434.17
3788.39	313.34
3789.28	434.17
3790.17	288.76
3791.06	464.89
3791.95	462.84
3792.84	657.40
3793.73	458.75
3794.62	307.20
3795.51	489.46
3796.39	507.90
3797.28	462.84
3798.17	559.10
3799.06	444.41
3799.94	460.79
3800.83	624.63
3801.71	487.42
3802.60	-245.76
3803.48	538.62
3804.37	542.71
3805.25	409.59
3806.14	694.26
3807.02	184.32
3807.91	516.09
3808.79	579.58
3809.67	446.46
3810.56	690.17
3811.44	378.87
3812.32	430.07
3813.20	169.98
3814.09	436.22
3814.97	274.43
3815.85	520.18
3816.73	366.59
3817.61	317.44
3818.49	292.86
3819.37	159.74
3820.25	581.62
3821.13	528.38
3822.01	342.01
3822.89	280.57
3823.77	202.75
3824.65	391.16
3825.52	284.67
3826.40	391.16
3827.28	462.84
3828.16	550.90
3829.03	335.87
3829.91	378.87
3830.79	411.64
3831.66	589.81
3832.54	389.11
3833.41	131.07
3834.29	47.10
3835.16	456.70
3836.04	352.25
3836.91	331.77
3837.79	737.27
3838.66	473.08
3839.53	481.27
3840.41	280.57
3841.28	473.08
3842.15	274.43
3843.02	163.84
3843.90	421.88
3844.77	485.37
3845.64	120.83
3846.51	344.06
3847.38	622.58
3848.25	280.57
3849.12	331.77
3849.99	126.97
3850.86	366.59
3851.73	223.23
3852.60	153.60
3853.47	356.35
3854.34	278.52
3855.21	270.33
3856.07	161.79
3856.94	546.81
3857.81	692.21
3858.68	331.77
3859.54	292.86
3860.41	505.85
3861.28	251.90
3862.14	428.03
3863.01	360.44
3863.87	399.35
3864.74	391.16
3865.60	524.28
3866.47	446.46
3867.33	290.81
3868.19	444.41
3869.06	239.61
3869.92	550.90
3870.78	425.98
3871.65	319.48
3872.51	686.07
3873.37	301.05
3874.23	208.89
3875.10	634.87
3875.96	186.37
3876.82	196.60
3877.68	483.32
3878.54	258.04
3879.40	411.64
3880.26	329.72
3881.12	358.39
3881.98	276.48
3882.84	229.37
3883.70	468.98
3884.55	401.40
3885.41	432.12
3886.27	520.18
3887.13	288.76
3887.99	438.27
3888.84	477.18
3889.70	241.66
3890.56	362.49
3891.41	503.80
3892.27	313.34
3893.12	374.78
3893.98	311.29
3894.83	323.58
3895.69	331.77
3896.54	411.64
3897.40	522.23
3898.25	266.24
3899.11	495.61
3899.96	339.96
3900.81	636.92
3901.66	342.01
3902.52	311.29
3903.37	466.94
3904.22	509.94
3905.07	262.14
3905.92	370.68
3906.78	270.33
3907.63	309.24
